timestamp,sequence,battery,flags,EEG-ch1,EEG-ch2,EEG-ch3,EEG-ch4,EEG-ch5,EEG-ch6,EEG-ch7,EEG-ch8,EEG-ch9,EEG-ch10,EEG-ch11,EEG-ch12,EEG-ch13,EEG-ch14,EEG-ch15,EEG-ch16
160371971797,28270,-2,0,7761.1167477263,-2094.8393558250,16144.8788772761,14141.1755706550,15539.5724634252,9040.0998638762,22534.7326961473,27499.2503414822,-1628.3420273302,-1758.9744204213,15094.7214675785,8443.4081793759,-8171.0707890848,14646.8772183133,-7714.7578228309,4892.2658616003
160371971797,28270,-2,0,7773.9780032681,-2088.6216627485,16164.4688691610,14144.7285381273,15538.4530353175,9040.9029318665,22533.5280941618,27499.1651676044,-1630.3862003965,-1758.5607187293,15091.3266801649,8441.3761740065,-8172.5674157940,14642.6671952125,-7721.9489316532,4890.0270053849
160371971797,28270,-2,0,7778.3462064275,-2086.0177756284,16200.0472146713,14145.4220968462,15537.7108058113,9041.4139751330,22532.2018152081,27497.9483979221,-1632.4668765532,-1758.4512094579,15088.8809731034,8440.6826152876,-8175.2808121856,14646.9258891005,-7723.8957631449,4887.8368199567
160371971797,28270,-2,0,7766.3853604506,-2091.7852639224,16199.9620407936,14139.8979624886,15533.9266520994,9036.6685733721,22528.9530401564,27494.5779459022,-1636.5673903825,-1762.8194126174,15085.8147135041,8436.8984615756,-8178.7364380833,14646.8893860101,-7724.8570111939,4884.1135047289
160371971797,28270,-2,0,7752.1248197741,-2102.3224893711,16160.6725477523,14131.4900839839,15528.3173438640,9032.3855440904,22524.9011971143,27488.9077991827,-1641.5804814736,-1768.2218700068,15081.4100072542,8434.2215682746,-8182.9829642745,14641.0367238382,-7722.8006704308,4881.4731145183
160371971797,28270,-2,0,7743.0842210347,-2105.1210596404,16135.1082167273,14128.6671783210,15526.1271584359,9030.0006755131,22522.6623408989,27487.3381662925,-1642.2618724957,-1769.3169627208,15079.6213558212,8433.0778047732,-8183.8955415362,14640.5743513590,-7718.6514858142,4881.2540959755
160371971797,28270,-2,0,7751.4920995393,-2099.7064345542,16150.8167133257,14131.8672825854,15528.2078345926,9030.2683648432,22521.4212358230,27487.8005387718,-1641.1424443879,-1766.0560199723,15078.9156294055,8431.9705443623,-8184.7107772233,14645.5266039659,-7716.2544495401,4880.9012327677
160371971797,28270,-2,0,7762.3821881958,-2099.0493789257,16184.5090658284,14130.7843575682,15525.9081398931,9030.5725572638,22518.9755287616,27485.5130117691,-1642.7850834590,-1766.9320941435,15075.0949726031,8429.2084771835,-8186.9739688324,14647.4734354576,-7717.8362501271,4878.2973456476
160372067870,28273,-2,0,7745.1527294946,-2102.8700357281,16180.6154028451,14132.8041952408,15531.0550756492,9037.0579396704,22526.5803392759,27495.0038152910,-1636.2266948715,-1760.6535625829,15083.4298449268,8434.3310775460,-8176.4245756869,14651.1237445045,-7714.9403382832,4884.9044050224
160372067870,28273,-2,0,7736.4041554789,-2109.5257658903,16142.9563811781,14127.7059302720,15526.9302264262,9032.7749103888,22524.1954706986,27491.7915433297,-1639.5849791946,-1765.4841382216,15081.9332182175,8433.7956988858,-8180.5859280004,14648.6171989589,-7714.1616056865,4882.7142195943
160372067870,28273,-2,0,7737.9859560658,-2110.1219830346,16136.3979925905,14126.1241296850,15526.4678539469,9033.0669351125,22521.5064097007,27488.2750789479,-1641.4223014149,-1766.1168584564,15080.9354670781,8432.3234075702,-8181.6931884113,14643.2025738727,-7715.7312385767,4881.5582883961
160372067870,28273,-2,0,7746.7466977784,-2106.2283200513,16167.6811411223,14128.4724951718,15527.7819652038,9035.0989404819,22522.1756330260,27490.2827489237,-1640.5827303341,-1764.3647101139,15080.6921131416,8433.3454941033,-8181.6445176240,14643.2025738727,-7715.9989279068,4880.9499035550
160372067870,28273,-2,0,7751.6989503853,-2106.4960093814,16197.9178677273,14129.0200415288,15529.7531320891,9037.6176537243,22523.4897442829,27492.3999281709,-1638.6237311456,-1763.2452820062,15081.9088828239,8435.9615489203,-8179.6611830418,14647.3274230957,-7713.6748978136,4882.4830333546
160372067870,28273,-2,0,7739.5069181687,-2113.1760749372,16180.2017011531,14125.9416142326,15529.5584489399,9036.4860579198,22524.0737937304,27491.2805000632,-1638.6967373265,-1762.4422140159,15083.1256525062,8437.5068464168,-8177.9820408803,14650.8438874775,-7707.9074095195,4885.3424421080
160372067870,28273,-2,0,7726.2076255412,-2118.4811907520,16144.1123123763,14122.3643113667,15529.8261382700,9034.9529281201,22525.5460850460,27493.0934868898,-1636.9932597713,-1762.4908848031,15084.8534654551,8439.5145163926,-8176.6800973202,14657.2927667937,-7700.6067914258,4889.0414219422
160372067870,28273,-2,0,7730.1012885246,-2115.6947881795,16135.3394029669,14124.2624720711,15533.9388197962,9037.0701073673,22526.5681715791,27492.8501329533,-1635.4844653653,-1760.1790224068,15086.9219739150,8440.7677891653,-8174.9887874618,14659.2517659822,-7696.5427806869,4890.5502163483
160372097924,28274,-2,0,7743.9846305996,-2107.5667667018,16164.8339000657,14128.3751535972,15533.7563043439,9036.5468964039,22524.8768617207,27492.8136298629,-1636.8959181967,-1761.2984505145,15083.0891494157,8436.9714677566,-8177.0086251344,14650.2476703332,-7706.1187580866,4885.5614606508
160372097924,28274,-2,0,7746.3694991769,-2109.1242318951,16196.0440424166,14127.8397749370,15529.5462812431,9033.8943384965,22521.7132605467,27490.1124011682,-1642.0306862560,-1768.1731992195,15076.9566302170,8432.7857800495,-8181.5350083526,14638.2989920531,-7719.1381936871,4879.0395751538
160372097924,28274,-2,0,7736.4284908725,-2118.4933584488,16182.2093711289,14123.4594040808,15524.2411654283,9028.4310426230,22518.6104978569,27487.3381662925,-1647.5061498263,-1773.1254518264,15073.2333149891,8430.4495822595,-8186.3777516881,14634.1376397396,-7726.2562963285,4875.9611478575
160372097924,28274,-2,0,7726.8281780792,-2122.3626860385,16146.6675287091,14119.8212627307,15523.8031283427,9026.0948448330,22517.6492498079,27485.6225210405,-1648.0901992738,-1773.6486627898,15074.5717616397,8430.4374145627,-8186.3169132040,14640.4283389971,-7723.2143721228,4878.3703518285
160372097924,28274,-2,0,7728.0327800647,-2117.8119674267,16138.6003457155,14123.1673793570,15527.7454621133,9031.1687744081,22521.7375959404,27488.6036067621,-1641.9576800751,-1767.6134851656,15079.9012128481,8435.0854747490,-8181.1213066606,14652.7055450914,-7709.9394148890,4886.3766963380
160372097924,28274,-2,0,7742.2203145602,-2108.3454992985,16169.3724509807,14129.7987741255,15534.0239936740,9037.9826846290,22526.1301344935,27494.0790703324,-1637.2122783141,-1761.9798415366,15085.0359809074,8438.2004051357,-8175.6458430903,14652.1579987344,-7706.1430934802,4889.6133036929
160372097924,28274,-2,0,7752.5871922534,-2103.0160480900,16203.8070329896,14131.9402887663,15532.4786961774,9038.3720509273,22526.7141839410,27494.3345919657,-1636.0198440255,-1760.6657302797,15084.9508070296,8437.5676849009,-8173.6138377208,14646.0376472325,-7713.8087424787,4888.3600309201
160372097924,28274,-2,0,7742.5853454649,-2107.7006113668,16198.4532463875,14130.3706558762,15534.1091675517,9038.1530323845,22526.0692960093,27493.5680270659,-1638.2952033314,-1760.7995749448,15083.7218696505,8435.4991764410,-8175.3903214570,14643.1782384791,-7718.1282748508,4885.7196407095
160372129126,28275,-2,0,7729.4685682898,-2113.9304721402,16160.5995415714,14123.8122672886,15532.6855470234,9035.9506792595,22524.3901538478,27488.8104576081,-1638.9644266566,-1763.0505988570,15079.8647097576,8431.8610350909,-8177.0329605281,14642.3873381856,-7722.0462732278,4884.8435665383
160372129126,28275,-2,0,7729.4929036834,-2115.2080803066,16142.2628224592,14121.2083801685,15531.9919883045,9037.1066104577,22523.1612164687,27486.1822350944,-1636.8594151063,-1761.5174690573,15080.5095976893,8429.6100111787,-8177.1181344058,14644.1151511344,-7725.2585451891,4884.9895789002
160372129126,28275,-2,0,7735.0657088283,-2109.5257658903,16164.4201983738,14126.1849681691,15534.1335029454,9038.5180632892,22523.3680673147,27488.2629112511,-1635.4601299716,-1759.7409853212,15081.0693117431,8429.6343465723,-8175.5241661220,14643.1417353886,-7729.0548665978,4886.3523609443
160372129126,28275,-2,0,7744.6416862280,-2107.8222883351,16199.2806497715,14128.3873212941,15535.5936265641,9040.4770624777,22524.5239985128,27490.3314197110,-1636.5065518984,-1760.1790224068,15081.4586780415,8429.6465142692,-8174.8184397063,14640.2214881511,-7729.1035373851,4886.1941808856
160372129126,28275,-2,0,7741.7214389905,-2110.6816970885,16200.1080531554,14127.3774024577,15535.2529310531,9040.0633607857,22525.3757372904,27491.4021770314,-1633.4767953895,-1761.5904752383,15083.3325033522,8431.5081718831,-8175.4024891538,14644.1151511344,-7723.6889122989,4888.8954095803
160372129126,28275,-2,0,7730.1986300992,-2111.5577712597,16169.0804262569,14128.8131906829,15535.2772664467,9039.5158144287,22527.8822828360,27494.1399088166,-1632.0410071644,-1758.3295324897,15086.7759615531,8435.7790334679,-8172.5917511877,14652.5351973359,-7715.3540399752,4894.0301776396
160372129126,28275,-2,0,7728.5073202408,-2110.2436600028,16149.1132357705,14129.0930477098,15538.4773707112,9042.3752231821,22529.7926112372,27493.8722194865,-1630.9459144503,-1756.5530487536,15087.4573525752,8436.8011200011,-8170.4867396373,14656.9764066763,-7711.2170230554,4895.0522641727
160372129126,28275,-2,0,7738.5456701197,-2102.5050048234,16167.9609981492,14133.2300646296,15538.2705198652,9042.3752231821,22530.3523252910,27494.3224242689,-1633.2942799372,-1758.4268740643,15086.4717691325,8436.5212629741,-8170.4015657596,14651.7442970424,-7712.1661034076,4891.4262905195
160372164115,28276,-2,0,7744.4835061693,-2100.0592977620,16202.8336172438,14135.3350761800,15536.5183715227,9041.7181675536,22530.5835115307,27495.4296846798,-1634.1825218052,-1760.5075502210,15086.1310736215,8438.2977467103,-8170.4745719405,14647.3760938830,-7715.8407478481,4889.2239373946
160372164115,28276,-2,0,7737.8399437040,-2107.6762759732,16207.4330066429,14132.7676921503,15535.1920925690,9039.1264481303,22530.0724682641,27496.0624049146,-1636.1415209937,-1762.0285123239,15086.7151230690,8439.2346593656,-8172.9567820924,14648.3616773257,-7717.8970886112,4888.2018508614
160372164115,28276,-2,0,7727.2540474680,-2115.1472418225,16170.7717361153,14126.5621667706,15533.5981242852,9037.3012936069,22528.3689907089,27494.2980888753,-1636.8959181967,-1765.2894550724,15086.9584770054,8439.0521439133,-8174.1857194715,14650.1138256682,-7716.4126295988,4888.7859003089
160372164115,28276,-2,0,7718.8705043570,-2115.2810864875,16144.0636415890,14125.0047015773,15532.5151992679,9036.8875919149,22527.0183763615,27491.7063694520,-1638.1491909695,-1763.8780022410,15085.3036702375,8439.3320009402,-8175.2808121856,14651.9024771011,-7713.7600716914,4890.2216885340
160372164115,28276,-2,0,7725.8304269397,-2110.4018400615,16156.4381892579,14125.6252541152,15531.7973051554,9037.8731753576,22525.7407681951,27491.7428725424,-1638.4777187837,-1763.0992696443,15084.1599067361,8440.0620627496,-8176.8382773789,14648.4225158098,-7714.6483135594,4888.6277202502
160372164115,28276,-2,0,7737.1828880755,-2107.8222883351,16189.5586600100,14126.8906945848,15526.9058910325,9034.4297171567,22521.5429127912,27489.4310101461,-1640.6800719087,-1763.9631761187,15082.5659384523,8439.0886470038,-8180.6589341813,14648.6537020494,-7712.9935067915,4888.1531800741
160372164115,28276,-2,0,7730.3324747642,-2112.0323114358,16198.0760477860,14122.3764790635,15525.6404505629,9032.1786932444,22521.2873911579,27489.5648548111,-1644.0140208382,-1766.9320941435,15080.4000884179,8437.4825110231,-8182.1920639810,14649.8461363381,-7706.8366521991,4886.6200502744
160372164115,28276,-2,0,7717.2035298923,-2117.0210671332,16167.9366627556,14119.2737163737,15524.2289977315,9029.6356446084,22519.4987397250,27487.3868370798,-1644.8900950094,-1769.2317888431,15078.5384308039,8436.8862938788,-8183.1289766364,14651.3184276536,-7704.7316406487,4886.8269011204
160372211569,28277,-2,0,7713.0543452756,-2119.2112525613,16137.8459485125,14116.4629784076,15523.9856437950,9028.6743965594,22518.2332992554,27484.1502297249,-1646.3015478409,-1771.0204402760,15077.8570397819,8434.3675806365,-8183.9563800203,14650.3450119078,-7705.3156900963,4885.4519513794
160372211569,28277,-2,0,7716.3152880242,-2116.2545022334,16144.4286724937,14117.3877233661,15521.8684645478,9027.4332914835,22515.3982258956,27483.1281431918,-1648.3822239976,-1773.0767810391,15074.3770784905,8430.7051038928,-8185.0758081280,14645.8307963865,-7711.5090477791,4882.2761825087
160372211569,28277,-2,0,7724.7475019225,-2114.5023538909,16178.6929067471,14118.2881329310,15520.6881979560,9027.6158069358,22512.9890219247,27482.5805968348,-1650.7427571812,-1774.9019355625,15072.1260545783,8429.8898682056,-8186.9374657419,14643.8596295012,-7715.4270461561,4880.1225001710
160372211569,28277,-2,0,7730.4419840356,-2113.4802673577,16198.6114264462,14119.6752503688,15522.0996507875,9028.5283841975,22514.1449531229,27484.9776331089,-1649.1366212006,-1774.0866998754,15074.0607183731,8432.2138982988,-8186.0978946612,14645.6361132373,-7714.6361458626,4881.1689220978
160372211569,28277,-2,0,7716.7654928066,-2117.5564457934,16175.3832932112,14118.8843500753,15524.3385070029,9031.5459730096,22516.8096787271,27486.6811106641,-1645.3646351855,-1770.2295399825,15078.7817847404,8435.5721826219,-8182.6057656730,14655.8934816591,-7706.4351182040,4887.3987828711
160372211569,28277,-2,0,7707.8830741259,-2118.5176938424,16145.9252992029,14119.2858840705,15530.6778770476,9037.2647905164,22520.1679630502,27488.5062651875,-1638.7940789011,-1763.0871019475,15082.4929322714,8437.4460079327,-8177.8360285184,14661.9408269801,-7701.0326608146,4892.6430602018
160372211569,28277,-2,0,7716.8506666844,-2116.0719867810,16153.1164080252,14123.5932487458,15536.7130546718,9045.1251226640,22525.9232836475,27491.9132202980,-1633.6106400545,-1755.2632728903,15086.5934461007,8441.4005094001,-8171.9711986497,14667.7691537582,-7700.1809220370,4898.1550268626
160372211569,28277,-2,0,7731.9507784417,-2106.0214692053,16191.8096839222,14130.2976496953,15541.7626488533,9052.1215483372,22529.6831019658,27498.6176212474,-1628.1960149683,-1748.6197104250,15090.5966183555,8444.8804706915,-8167.5421570062,14668.2193585407,-7696.7131284424,4902.1581991173
160372276654,28278,-2,0,7733.2040512144,-2105.2427366086,16214.0522337145,14132.3783258520,15541.7991519438,9052.4865792419,22529.7561081467,27500.6131235264,-1628.4515366016,-1747.5367854078,15090.7182953237,8445.4280170485,-8169.0144483217,14662.9264104227,-7696.1655820854,4899.6394858750
160372276654,28278,-2,0,7725.3437190668,-2112.3608392500,16188.6947535355,14126.4648251960,15538.0393336255,9049.1039595251,22527.1643887234,27498.9826521521,-1631.0797591154,-1750.7125542785,15089.3555132795,8442.7389560507,-8173.4921607526,14659.8966539138,-7701.3125178415,4898.6417347355
160372276654,28278,-2,0,7715.1836922197,-2115.5487758176,16153.8829729251,14123.3742302030,15536.7738931559,9046.1593768940,22525.1080479603,27492.6797851978,-1632.7223981865,-1755.0077512570,15085.2671671470,8438.3585851944,-8174.6967627381,14657.0129097668,-7706.3621120230,4896.4393816106
160372276654,28278,-2,0,7716.4491326892,-2111.0832310836,16152.8243833015,14123.9217765600,15536.5305392195,9044.9182718181,22522.5893347180,27489.1754885128,-1635.1924406415,-1756.5773841472,15083.1621555967,8434.5014253015,-8174.9887874618,14654.8105566418,-7711.3021969331,4891.7791537274
160372276654,28278,-2,0,7731.0625365736,-2104.2328177723,16186.6870835597,14127.8397749370,15533.2209256836,9044.9426072117,22521.4455712166,27486.9366322974,-1637.4799676442,-1756.4800425726,15080.3757530242,8431.3864949148,-8175.8526939362,14654.2021718007,-7713.1638545470,4889.3212789691
160372276654,28278,-2,0,7731.9994492290,-2107.9317976065,16209.8422106138,14124.5301614012,15532.9532363535,9042.3873908789,22518.9633610648,27487.0461415688,-1640.4853887595,-1760.1790224068,15077.6866920263,8430.0480482643,-8178.6147611150,14655.3946060893,-7711.0831783903,4886.8755719077
160372276654,28278,-2,0,7715.7190708799,-2117.7511289426,16187.9281886357,14116.6576615567,15529.2299211257,9038.1652000813,22516.4324801256,27484.2597389963,-1643.0406050923,-1763.2209466125,15077.2243195471,8429.3301541518,-8180.2452324893,14660.5658772391,-7707.0313353483,4888.1775154678
160372276654,28278,-2,0,7705.8875718469,-2124.4433621952,16152.9582279665,14112.2042845195,15527.1614126658,9037.7393306925,22515.6294121353,27483.0551370109,-1642.8824250336,-1763.0505988570,15079.2198218260,8430.7902777705,-8181.6323499271,14660.6145480264,-7705.7537271819,4888.8710741867
160372347792,28282,-2,0,7667.4011467960,-2128.3856959658,16170.8447422963,14118.8843500753,15532.8923978694,9041.4748136172,22522.7475147767,27489.3580039651,-1639.7674946470,-1761.5539721478,15084.2450806139,8438.5045975563,-8173.0054528797,14661.9286592832,-7698.4166059976,4898.7999147942
160372347792,28282,-2,0,7653.8219971416,-2132.4862097952,16139.4034137058,14114.2606252826,15529.8139705732,9039.5401498223,22523.1490487718,27488.6766129431,-1642.7972511559,-1765.0947719233,15084.0625651616,8437.2756601771,-8175.2686444887,14654.6158734926,-7699.9619034942,4898.2036976499
160372347792,28282,-2,0,7655.6593193618,-2129.1522608657,16147.3367520343,14113.9564328620,15527.8914744752,9037.0822750641,22520.8006832850,27488.0803957987,-1645.2794613077,-1767.4309697133,15082.3955906968,8436.2414059472,-8178.1645563326,14647.5099385480,-7705.5103732454,4895.1496057473
160372347792,28282,-2,0,7667.5106560674,-2126.8769015598,16183.0489422097,14116.3534691362,15526.3705123723,9037.0336042768,22521.5429127912,27490.0880657745,-1645.2794613077,-1767.1146095959,15082.6876154206,8436.3144121281,-8179.2961521371,14649.2620868906,-7712.0200910457,4894.6507301776
160372347792,28282,-2,0,7665.8923523899,-2129.8701549782,16195.0827943676,14115.4043887840,15523.9856437950,9035.2327851470,22520.2653046248,27490.9154691585,-1648.0658638802,-1770.8135894300,15082.3225845159,8436.5699337614,-8181.9365423477,14649.8826394285,-7715.9624248163,4892.8742464414
160372347792,28282,-2,0,7650.8895822072,-2142.0500194980,16162.7167208185,14107.4223796681,15516.3686655839,9026.5207142218,22514.1084500324,27487.1678185370,-1652.6409178856,-1774.2813830246,15079.5726850339,8435.4383379569,-8186.3655839913,14649.0187329541,-7715.8164124545,4890.4407070768
160372347792,28282,-2,0,7648.4438751458,-2143.2667891803,16132.0419571279,14102.9933380246,15515.6507714713,9027.0074220947,22515.0575303846,27486.2065704880,-1654.0158676266,-1774.8654324721,15078.8791263150,8435.0246362649,-8187.5093474926,14649.8704717317,-7709.1241792018,4887.9584969250
160372347792,28282,-2,0,7657.3993000075,-2137.4993008862,16137.8702839061,14104.8184925480,15516.3199947966,9026.9587513074,22514.8871826291,27488.3115820384,-1654.4417370154,-1774.9019355625,15077.6501889359,8434.3432452428,-8187.2903289498,14650.1868318491,-7705.4251993677,4886.8634042109
160372385220,28283,-2,0,7670.9054434810,-2131.4154524748,16174.7627406733,14109.8802544264,15516.4538394616,9027.3602853025,22515.2643812306,27489.7473702635,-1654.9527802820,-1776.3377237877,15074.5474262460,8433.5888480398,-8187.8743783973,14650.5518627538,-7704.4031128345,4884.0404985480
160372385220,28283,-2,0,7675.3831559118,-2131.7196448953,16193.9633662599,14110.2696207247,15516.1618147379,9027.7618192977,22515.7632568003,27488.8347930018,-1655.0987926439,-1776.5567423305,15072.5275885734,8433.6010157366,-8186.8766272578,14652.9367313311,-7706.0822549961,4883.1157535894
160372385220,28283,-2,0,7668.0703701212,-2132.8390730030,16174.0448465607,14109.5638943090,15518.6561925866,9029.4287937624,22515.8362629813,27488.6036067621,-1653.8576875679,-1775.4616496164,15072.7466071162,8433.4915064652,-8185.3434974581,14652.5108619423,-7707.7005586735,4883.7971446115
160372385220,28283,-2,0,7661.1226152353,-2132.6687252475,16145.2925789681,14109.0893541329,15522.8783833841,9032.4463825745,22516.9800264826,27487.6788618036,-1649.9883599782,-1772.0303591123,15074.1823953413,8432.9317924114,-8181.5958468367,14651.8659740107,-7709.4892101065,4885.5857960445
160372385220,28283,-2,0,7671.4894929285,-2129.2130993498,16148.1154846310,14112.7883339670,15523.9248053109,9035.6464868390,22518.0872868935,27485.5860179500,-1645.6323245156,-1767.2119511705,15075.6546866569,8434.5014253015,-8178.0063762739,14653.2287560548,-7711.3873708109,4888.5425463725
160372385220,28283,-2,0,7681.6373520788,-2125.2829332760,16181.0899430212,14117.5945742121,15529.9721506319,9041.3166335585,22522.7840178672,27490.5869413443,-1642.1645309211,-1764.3403747202,15077.4920088772,8435.8398719520,-8174.4412411048,14653.4477745976,-7713.1151837598,4890.5502163483
160372385220,28283,-2,0,7680.6396009393,-2125.0882501268,16206.5812678653,14120.8190138702,15530.3493492334,9044.1152038277,22524.6335077842,27492.4364312614,-1641.9333446814,-1763.0262634634,15079.1224802514,8436.9106292725,-8172.4579065226,14654.7132150672,-7713.7965747818,4890.6962287101
160372385220,28283,-2,0,7669.3601459845,-2130.0283350369,16185.8231770853,14118.1907913564,15531.1889203142,9043.7866760135,22526.4708300045,27493.5193562786,-1640.8382519674,-1763.9875115124,15083.0404786284,8438.2247405293,-8172.7864343369,14654.0561594388,-7712.3851219504,4892.3388677812
160372419124,28284,-2,0,7654.3695434986,-2133.1310977268,16151.9726445239,14116.0006059283,15531.2619264951,9042.8497633582,22527.4077426599,27492.8257975597,-1639.5971468914,-1763.6954867886,15085.4618502962,8439.3806717275,-8172.1537141021,14654.0439917420,-7712.5311343123,4895.1617734441
160372419124,28284,-2,0,7649.2469431361,-2130.3203597607,16147.6774475454,14115.9275997474,15533.3182672582,9044.2368807960,22527.9917921074,27491.7307048456,-1637.7841600648,-1762.3570401381,15086.8368000372,8436.5699337614,-8170.9734475102,14653.6911285341,-7714.2346118675,4896.3055369455
160372419124,28284,-2,0,7657.2897907361,-2125.0152439459,16178.3035404487,14120.7095045988,15533.9753228867,9046.7799294320,22527.1643887234,27492.3025865963,-1636.9932597713,-1760.5075502210,15087.6277003307,8435.5235118346,-8170.6327519992,14654.7010473704,-7716.6559835352,4897.2424496009
160372419124,28284,-2,0,7658.9811005945,-2125.6114610902,16206.4717585938,14120.8433492638,15533.5251181042,9047.1084572462,22527.5294196281,27493.2273315548,-1635.9346701477,-1761.2619474240,15088.6862899543,8437.7988711405,-8171.8373539847,14660.8579019628,-7715.7069031830,4897.6196482024
160372419124,28284,-2,0,7645.6574725734,-2130.7340614527,16188.5852442641,14117.5824065153,15532.1136652728,9045.9160229575,22527.2495626012,27493.3003377358,-1635.9346701477,-1760.8482457321,15090.0612396953,8438.4559267690,-8171.0586213880,14662.9020750291,-7710.0732595540,4901.3064603397
160372419124,28284,-2,0,7636.9697370418,-2135.4672955168,16155.7811336295,14114.7716685492,15532.7707209012,9045.4901535687,22528.6610154326,27495.2106661370,-1633.3794538149,-1760.5927240988,15092.6286237249,8440.1837397178,-8169.5011561947,14662.5857149117,-7704.4882867123,4905.5529865309
160372419124,28284,-2,0,7641.1554247489,-2130.6732229686,16147.8356276041,14117.7040834835,15535.9099866815,9047.6195005127,22530.7173561957,27497.1331622350,-1631.1162622058,-1756.5530487536,15095.4028586005,8444.6614521487,-8166.2280457493,14666.1630177776,-7699.2683447752,4910.6025807125
160372419124,28284,-2,0,7652.4592150974,-2124.9422377649,16176.6974044681,14123.2525532348,15539.3899479729,9050.8682755645,22532.9683801080,27500.7834712819,-1628.8774059904,-1753.5841307288,15097.1915100335,8447.4721901148,-8163.7215002038,14663.2184351465,-7700.9596546336,4911.6003318519
160372476580,28286,-2,0,7626.9678902533,-2140.3830450333,16137.0307128253,14108.1281060839,15529.7652997859,9042.2170431234,22525.7772712856,27499.9073971106,-1638.6237311456,-1760.1911901036,15082.9309693570,8448.0440718655,-8173.9545332319,14670.8962518417,-7690.3980937913,4904.5917384819
160372476580,28286,-2,0,7636.3491845038,-2134.3235320154,16161.3296033807,14112.7761662702,15531.3227649793,9046.9989479748,22526.9697055742,27501.2336760643,-1635.5209684557,-1757.2709428661,15083.9773912838,8447.8372210195,-8172.6890927623,14667.1364335235,-7693.8293842954,4906.4168930054
160372476580,28286,-2,0,7648.6750613855,-2126.6822184106,16202.6024310042,14117.5824065153,15535.1555894785,9051.7078466453,22529.2694002738,27503.4846999766,-1633.8418262942,-1754.8860742888,15084.5006022472,8446.2432527357,-8170.4137334564,14664.4230371319,-7702.1764243159,4905.6138250151
160372476580,28286,-2,0,7639.7561396142,-2131.3302785970,16206.8732925890,14114.3336314636,15536.4453653417,9052.1093806404,22527.2860656916,27500.4306080740,-1632.6737273992,-1754.8009004110,15083.5271865014,8443.1283223490,-8169.2821376519,14664.4230371319,-7704.2692681695,4906.0396944039
160372476580,28286,-2,0,7625.8362944488,-2136.6718975023,16173.8379957147,14107.6170628173,15536.5427069163,9053.1071317799,22524.3779861510,27496.5004420002,-1629.5953001030,-1753.5354599415,15084.3424221885,8441.8142110921,-8168.6494174171,14669.8985007023,-7699.3170155625,4908.7409230986
160372476580,28286,-2,0,7619.8741230056,-2138.3997104511,16151.3399242891,14105.9987591398,15538.3800291366,9051.9633682785,22523.2463903464,27491.6333632710,-1629.0355860491,-1753.5841307288,15083.2960002617,8437.8597096247,-8168.9049390503,14673.0742695730,-7699.9497357973,4909.0207801255
160372476580,28286,-2,0,7622.0156376464,-2131.3059432033,16167.8149857874,14111.1700302896,15539.4264510633,9052.2918960928,22525.3027311095,27491.4873509092,-1629.2059338046,-1753.5841307288,15084.0017266774,8438.5776037372,-8165.7900086637,14669.3266189516,-7703.2836847268,4907.4998180226
160372476580,28286,-2,0,7634.2806760439,-2123.2630956034,16207.0923111318,14120.3079706036,15542.2858598167,9054.8836155160,22530.8633685576,27496.9384790858,-1626.4803697163,-1751.7833115990,15088.1144082036,8441.2788324319,-8161.1906192646,14663.6199691416,-7703.2958524236,4907.5849919004
160372504014,28287,-2,0,7634.9498993692,-2124.0661635937,16216.8508039838,14123.1795470538,15544.1718528243,9054.5307523082,22534.9517146901,27504.3121033605,-1625.3852770022,-1752.3551933496,15093.1883377788,8445.5375263199,-8158.6840737191,14662.8047334545,-7696.5306129901,4911.6246672456
160372504014,28287,-2,0,7621.1638988688,-2130.0526704306,16185.7380032076,14121.5490756796,15545.4859640812,9053.6303427433,22536.6308568517,27504.7744758398,-1624.6308797992,-1752.4403672274,15095.3176847228,8447.6668732639,-8157.0292669511,14669.5334697976,-7688.4634299965,4915.4696594416
160372504014,28287,-2,0,7614.2526470734,-2131.2451047192,16158.9690701971,14118.2637975374,15546.9582553967,9054.4577461272,22536.3509998247,27503.8375631845,-1622.6840483075,-1749.3376045375,15097.1185038526,8448.6159536161,-8157.3456270685,14678.0021867863,-7684.0222206561,4919.8621979947
160372504014,28287,-2,0,7622.4658424288,-2128.8724038388,16168.8370723205,14117.5215680312,15546.2038581937,9055.9422051396,22535.4627579567,27501.8177255118,-1621.8809803172,-1749.3862753248,15096.8264791288,8447.1071592101,-8158.5867321445,14678.0751929673,-7687.7333681871,4919.4119932123
160372504014,28287,-2,0,7630.1436591241,-2125.1734240046,16204.0138838356,14118.9330208626,15546.0213427414,9058.5339245629,22535.5357641376,27503.0953336783,-1621.3942724443,-1748.2303441267,15096.8264791288,8447.5330285989,-8159.5601478903,14676.7002432263,-7692.5882792195,4918.7671052807
160372504014,28287,-2,0,7627.5884427913,-2126.5970445329,16217.1184933139,14117.0470278551,15545.2547778415,9058.8502846803,22534.3068267585,27501.8663962991,-1623.7183025375,-1749.1307536916,15096.9846591875,8448.8106367653,-8160.4483897584,14671.5654751670,-7697.7473826724,4917.2461431778
160372504014,28287,-2,0,7615.0313796700,-2135.0292584312,16186.6749158629,14111.5837319816,15545.8266595922,9058.2662352328,22532.7006907778,27499.1164968171,-1624.5335382246,-1750.3475233739,15095.5123678720,8447.8007179290,-8162.3465504628,14671.6384813479,-7699.6090402863,4918.3534035887
160372504014,28287,-2,0,7602.3404718837,-2139.0567660796,16154.0654883774,14107.4102119713,15543.7216480418,9055.2973172080,22531.2527348559,27496.6342866653,-1625.3852770022,-1751.5886284498,15094.0887473437,8447.8493887163,-8162.3830535532,14674.8385856124,-7696.5792837774,4917.0514600286
160372541509,28288,-2,0,7606.0516194147,-2136.0756803579,16159.6382935223,14110.4034653897,15542.6873938119,9053.4964980782,22530.1089713546,27500.1142479566,-1627.5632947335,-1752.0144978386,15092.7989714804,8447.5816993862,-8162.3952212501,14670.5312209371,-7692.9289747305,4915.6278395003
160372541509,28288,-2,0,7618.3409932059,-2132.7417314285,16192.6127519125,14114.3214637667,15538.9519108872,9052.4379084546,22530.9850455258,27502.8154766513,-1631.1527652963,-1755.5309622204,15091.1928354998,8447.4235193275,-8164.9747729765,14663.1819320560,-7692.0407328624,4912.9631138961
160372541509,28288,-2,0,7615.7492737826,-2135.9296679961,16209.2946642568,14112.4841415465,15536.7130546718,9047.6681713000,22531.2527348559,27503.2900168274,-1633.5984723577,-1761.5783075414,15089.9152273334,8447.8858918068,-8168.3938957838,14663.3644475083,-7695.0704893713,4910.4687360474
160372541509,28288,-2,0,7600.0894479714,-2144.7025774054,16180.0313533976,14106.6314793746,15533.0140748377,9044.9061041212,22528.2716491343,27501.0024898247,-1636.3970426270,-1764.2308654488,15087.7980480862,8447.1193269069,-8170.5719135151,14669.0589296215,-7696.1290789949,4910.5660776220
160372541509,28288,-2,0,7595.4778908756,-2144.8850928577,16148.9793911054,14102.6161394231,15533.2087579868,9045.9160229575,22527.7727735646,27499.3720184504,-1634.3650372576,-1761.9920092334,15088.3334267464,8447.9710656845,-8171.3628138086,14677.5763173975,-7690.2764168231,4912.8657723215
160372541509,28288,-2,0,7601.8659317076,-2138.0955180305,16152.0699860985,14106.6923178587,15533.3791057423,9046.9867802779,22525.4000726841,27498.8731428807,-1634.1095156243,-1761.5418044510,15085.8512165945,8445.5496940168,-8172.7620989432,14675.7389951773,-7693.1236578797,4910.3227236855
160372541509,28288,-2,0,7611.2837290486,-2133.6299732965,16183.6694947477,14107.2276965190,15530.9333986809,9046.3297246495,22523.1855518623,27497.8753917412,-1638.1856940600,-1762.0163446271,15080.6921131416,8441.9480557572,-8176.1812217505,14668.6938987168,-7699.7185495577,4903.6791612202
160372541509,28288,-2,0,7615.5180875429,-2134.9440845534,16203.5636790532,14105.0253433940,15527.5872820546,9045.5144889624,22520.2044661407,27497.3643484746,-1641.7873323196,-1764.6323994440,15077.9422136596,8439.9525534782,-8179.5273383768,14667.4892967313,-7701.8600641985,4900.3452122907
160372652710,28290,-2,0,7615.9926277190,-2137.9738410623,16177.6464848203,14107.8847521474,15536.9929116988,9053.6668458337,22526.3978238236,27495.4175169830,-1631.7489824406,-1753.7058076970,15082.4442614841,8443.3960116791,-8170.2190503072,14661.8313177087,-7701.6167102621,4910.2618852014
160372652710,28290,-2,0,7622.3928362479,-2132.4497067047,16208.3699192982,14111.1456948959,15537.3944456939,9053.5086657750,22527.9796244105,27497.4008515651,-1631.9314978930,-1755.6404714918,15083.4785157141,8444.9778122661,-8170.0121994612,14658.3270210236,-7706.7393106245,4911.0284501013
160372652710,28290,-2,0,7617.0025465553,-2125.0639147332,16200.0837177618,14116.6698292536,15540.2903575378,9055.4068264794,22531.8367843034,27501.3918561230,-1629.7413124649,-1754.0586709048,15088.7957992257,8448.7863013717,-8167.4813185221,14664.5203787065,-7705.0601684630,4916.4187397938
160372652710,28290,-2,0,7606.9155258891,-2125.3316040633,16164.0551674691,14113.0803586908,15539.6698049998,9054.7011000637,22532.6885230810,27500.9416513406,-1629.4736231347,-1753.3042737018,15091.7282141600,8449.8327232984,-8166.5565735635,14669.6064759785,-7705.8997395438,4918.8157760679
160372652710,28290,-2,0,7607.6334200017,-2125.6114610902,16151.3520919859,14113.5427311701,15540.4363698996,9054.4699138241,22534.5136776045,27500.9538190374,-1630.4227034869,-1752.5863795893,15094.4659459452,8452.0107410297,-8164.3177173481,14673.3419589032,-7702.2859335873,4919.8987010852
160372652710,28290,-2,0,7624.2301584682,-2117.2887564633,16181.0047691434,14120.6486661147,15542.6995615087,9055.5285034477,22538.4803467687,27507.5730461091,-1628.7557290222,-1752.1605102005,15096.9603237939,8454.6267958467,-8161.4096378074,14675.5199766345,-7699.9132327069,4921.6021786404
160372652710,28290,-2,0,7645.0612554290,-2109.7204490394,16217.2280025853,14125.0412046677,15543.1254308975,9057.3049871838,22541.5101032777,27512.0872616304,-1627.0035806797,-1751.3817776038,15099.3938631585,8459.9319116615,-8159.1586138952,14677.3694665515,-7694.9853154936,4923.1353084401
160372652710,28290,-2,0,7645.1951000941,-2110.3410015774,16211.5335204722,14123.5202425649,15543.2471078657,9056.7331054331,22542.2158296934,27511.0530074005,-1628.0256672128,-1752.9757458876,15100.0387510901,8457.4618692064,-8161.4218055042,14678.9512671385,-7692.6491177036,4922.7946129291
160372659176,28291,-2,0,7626.6515301359,-2118.7002092948,16173.4729648100,14115.7207489014,15539.7549788776,9051.7930205230,22536.4970121866,27508.4612879772,-1629.9238279172,-1754.3385279318,15096.6561313733,8454.8944851768,-8165.3884746685,14681.3604711095,-7688.5364361774,4922.5999297799
160372659176,28291,-2,0,7621.1760665656,-2121.4501087768,16153.2259172967,14110.6954901135,15538.7937308285,9052.0972129436,22534.4041683331,27504.5189542065,-1629.8021509490,-1755.1659313157,15094.6849644880,8452.8868152010,-8167.5299893093,14682.0905329188,-7686.8816294095,4923.6220163130
160372659176,28291,-2,0,7630.1193237305,-2118.5176938424,16174.2273620130,14111.6810735562,15539.6333019093,9054.0562121321,22532.6276845969,27504.5067865097,-1628.9625798682,-1753.3651121859,15092.9206484487,8452.5826227804,-8166.8242628936,14678.5253977497,-7691.1768263880,4922.2227311784
160372659176,28291,-2,0,7635.2662594866,-2117.4956073093,16211.3023342326,14112.2042845195,15540.4607052933,9056.5384222840,22533.8079511887,27505.9547424316,-1629.4857908316,-1753.5111245478,15092.1540835488,8452.6677966582,-8166.8607659841,14671.4559658956,-7697.5040287359,4919.8987010852
160372659176,28291,-2,0,7631.1414102636,-2120.9634009038,16210.9738064183,14109.9897636978,15540.7770654107,9057.1954779124,22533.2239017412,27505.5288730428,-1629.0112506555,-1754.2776894477,15091.1563324093,8451.9133994551,-8165.9725241160,14668.4992155676,-7698.8668107801,4918.3290681950
160372659176,28291,-2,0,7620.0931415484,-2123.3482694811,16179.7879994611,14110.8901732627,15543.5269648927,9059.3734956437,22533.5767649491,27504.7379727493,-1626.3708604449,-1751.0532497896,15093.0423254169,8453.4586969517,-8162.9914383944,14676.1405291724,-7687.7455358839,4922.7946129291
160372659176,28291,-2,0,7614.9462057923,-2120.2333390945,16158.9934055907,14112.5571477274,15546.5323860079,9061.6731903432,22536.4605090961,27506.9159904807,-1622.5623713393,-1747.4759469236,15094.4902813388,8455.2838514751,-8158.9882661396,14686.5682453497,-7677.8897014573,4925.8243694380
160372659176,28291,-2,0,7622.9282149081,-2115.7069558763,16176.6000628935,14116.2439598648,15546.6540629762,9062.2572397907,22537.3365832674,27507.5487107154,-1622.2946820092,-1747.4881146205,15095.7070510211,8455.9409071035,-8157.4551363400,14694.1487204704,-7679.0943034428,4926.7004436092
160372809186,28296,-2,0,7629.7299574321,-2111.2535788391,16213.1396564528,14112.4719738496,15549.9515088152,9062.3424136685,22542.7268729600,27514.3991240268,-1622.2703466156,-1748.1573379457,15100.9513283518,8463.8985808257,-8159.2802908634,14683.7696750804,-7685.5188473653,4935.8140485296
160372809186,28296,-2,0,7621.0300542037,-2115.3905957589,16177.0867707664,14108.7608263186,15547.1286031523,9062.0260535511,22542.9945622901,27513.8880807602,-1621.9904895886,-1747.8896486156,15100.7323098090,8463.9959224003,-8158.9882661396,14684.7917616135,-7686.7721201381,4936.8604704564
160372809186,28296,-2,0,7621.6506067417,-2113.4437642673,16160.8550632046,14109.6125650963,15548.9294222821,9061.8800411892,22541.8142956982,27512.0629262368,-1621.6497940776,-1749.6539646549,15100.5619620535,8461.9517493341,-8159.0247692301,14678.9999379258,-7687.7577035807,4936.5684457326
160372809186,28296,-2,0,7629.6691189480,-2105.3644135768,16183.7425009286,14113.8955943779,15548.9172545852,9062.9021277224,22543.0310653805,27515.1291858361,-1622.2095081315,-1749.3376045375,15100.5741297503,8462.6209726593,-8157.5403102177,14673.5974805364,-7689.1934918059,4932.2124102700
160372809186,28296,-2,0,7643.1022562405,-2099.2805651654,16221.6813796225,14119.7482565498,15552.1051911528,9066.9052999771,22547.6669578701,27518.6456502180,-1619.6299564050,-1746.0036556081,15104.5894697019,8466.5268033395,-8154.0846843200,14674.6317347664,-7681.3696627487,4937.7243769308
160372809186,28296,-2,0,7641.3501078980,-2099.0372112289,16220.8783116322,14118.7626731071,15553.2367869574,9067.6840325738,22549.8084725109,27522.0647730252,-1617.7926341847,-1744.2880103560,15106.5241334967,8469.3253736088,-8152.2473620997,14677.4059696420,-7679.4593343475,4939.2575067305
160372809186,28296,-2,0,7629.2310818624,-2102.0669677378,16190.8484358732,14116.2196244711,15554.1493642191,9069.4361809163,22551.6336270343,27523.1598657393,-1614.4221821648,-1742.8400544341,15109.9310886071,8471.0166834672,-8149.8138227351,14682.4920669140,-7681.7955321375,4943.5527037090
160372809186,28296,-2,0,7628.5740262340,-2100.5460056349,16169.8348234600,14115.2827118157,15555.3783015982,9069.0468146179,22552.6557135675,27521.0913572794,-1614.2031636220,-1743.1320791578,15110.0162624849,8469.9580938436,-8149.9841704907,14684.6822523421,-7686.1515676001,4945.2926843547
160372824189,28297,-2,0,7640.6808845728,-2097.2363920991,16189.7776785528,14117.7527542708,15555.3052954173,9070.0567334542,22553.2640984086,27522.4298039299,-1613.6191141745,-1741.9153094756,15110.5638088419,8470.3717955356,-8147.9156620308,14686.5317422592,-7686.2002383874,4945.7672245308
160372824189,28297,-2,0,7648.1761858157,-2094.4499895267,16223.8350619602,14121.5977464668,15557.2642946058,9071.8332171904,22555.2596006876,27525.2283741992,-1613.4122633285,-1741.3677631185,15110.6489827197,8470.8341680148,-8146.6745569548,14688.7827661715,-7684.7766178591,4945.2075104769
160372824189,28297,-2,0,7644.5988829498,-2099.6334283732,16225.8305642391,14120.6730015083,15556.3882204345,9071.2248323493,22556.0991717684,27524.7538340231,-1612.6456984286,-1740.6985397933,15111.8414170083,8471.7345775797,-8148.6822269306,14691.8733611645,-7682.6229355215,4945.2561812642
160372824189,28297,-2,0,7632.5893661855,-2104.4518363151,16193.2333044505,14117.5094003343,15555.8771771680,9070.6407829017,22555.2352652939,27524.0602753042,-1611.8182950447,-1739.7372917442,15111.2695352577,8471.2843727973,-8147.7331465784,14700.0135503390,-7674.5679202247,4947.1665096654
160372824189,28297,-2,0,7622.7700348494,-2103.7339422026,16169.9808358218,14116.4873138012,15557.2642946058,9072.1495773078,22554.0063279148,27522.0526053284,-1610.5650222719,-1737.7904602526,15110.4908026610,8470.0067646309,-8147.7696496689,14712.9234766682,-7667.6566684292,4949.0159995825
160372824189,28297,-2,0,7631.9201428603,-2099.8402792192,16186.8087605280,14118.1056174787,15558.9434367673,9073.5245270488,22553.0207444722,27521.8579221792,-1609.6524450102,-1735.3569208880,15108.4101265043,8467.3298713298,-8147.7696496689,14720.2240947620,-7665.9166877836,4947.1056711813
160372824189,28297,-2,0,7642.1531758884,-2098.6478449306,16220.5741192116,14116.9983570678,15553.0421038082,9070.5191059335,22547.8494733224,27517.6113959880,-1616.2351689914,-1741.6841232359,15101.7787317358,8461.7935692754,-8154.7782430389,14704.4547596794,-7674.2758955009,4939.2940098210
160372824189,28297,-2,0,7637.3226002497,-2101.6289306522,16224.1392543808,14114.1024452239,15546.5323860079,9064.2892451602,22543.2257485297,27514.8249934156,-1623.0612469091,-1749.1915921757,15097.8242302683,8459.3843653044,-8159.9495141887,14689.1112939857,-7680.2137315505,4933.5386892237
160372854175,28298,-2,0,7628.6105293244,-2106.6420217432,16192.3937333697,14110.9510117468,15545.0722623892,9061.6488549496,22541.2910847348,27513.5108821587,-1623.8521472025,-1750.7977281563,15097.5808763318,8461.2946937056,-8161.1419484773,14686.1302082641,-7679.9703776141,4933.8185462506
160372854175,28298,-2,0,7629.3892619211,-2106.6298540464,16167.7906503937,14110.5251423580,15547.2867832110,9064.4352575220,22542.6538667790,27514.3017824522,-1622.7570544885,-1747.9504870997,15100.8296513836,8463.6187237988,-8159.4506386189,14688.5150768414,-7677.7680244891,4936.5684457326
160372854175,28298,-2,0,7634.9133962787,-2100.5825087254,16179.6784901897,14113.4697249891,15549.5864779105,9066.9052999771,22545.8661387403,27517.4775513230,-1620.6155398476,-1746.6485435397,15104.3096126749,8465.0666797207,-8156.6399006528,14692.4574106120,-7677.8045275796,4936.7752965786
160372854175,28298,-2,0,7644.6475537371,-2097.8691123339,16216.7656301061,14116.3656368330,15546.0943489223,9065.4695117520,22544.8683876008,27516.7353218168,-1621.2117569920,-1747.1230837158,15104.4434573400,8464.0445931876,-8156.7980807115,14692.3600690374,-7682.6716063088,4935.8627193169
160372854175,28298,-2,0,7644.5623798593,-2099.8889500065,16230.8314876334,14113.7009112288,15549.3431239740,9067.5745233024,22547.5331132050,27519.8867552939,-1621.5281171094,-1747.4394438332,15105.6480593255,8464.8598288748,-8157.6011487018,14695.1221362162,-7677.6220121272,4935.2299990821
160372854175,28298,-2,0,7627.9291383023,-2104.5735132833,16200.5947610284,14109.8437513359,15545.8023241986,9063.9242142555,22546.1703311608,27518.5969794307,-1621.2360923856,-1749.0577475106,15106.5849719808,8466.7944926696,-8158.4163843890,14697.7260233363,-7668.7760965370,4937.4688552975
160372854175,28298,-2,0,7620.6650232990,-2108.3333316016,16166.7685638606,14106.4246285286,15545.5711379589,9062.4397552431,22545.7322940752,27517.2220296897,-1624.0833334422,-1750.7612250658,15103.6403893497,8464.2271086400,-8161.0324392059,14693.0414600595,-7667.3403083118,4935.4246822313
160372854175,28298,-2,0,7626.6393624391,-2106.3013262322,16171.4531271374,14105.7432375066,15541.6774749756,9059.9210420007,22542.2279973902,27515.0683473520,-1627.2104315257,-1753.7788138779,15099.3086892807,8460.6254703804,-8163.9405187466,14679.0364410163,-7677.8288629732,4934.1835771553
160372882909,28299,-2,0,7637.9066496972,-2101.9087876791,16204.3789147403,14109.0650187392,15542.9307477483,9058.4244152915,22539.9283026907,27513.3405344032,-1628.4637042984,-1754.2290186604,15098.1284226889,8460.1630979011,-8163.2956308150,14671.4072951083,-7689.6923673756,4933.7212046761
160372882909,28299,-2,0,7639.8291457952,-2101.3977444126,16222.2167582827,14108.4809692917,15542.2128536358,9058.7286077121,22542.4835190235,27514.8979995965,-1627.9039902446,-1756.4922102694,15097.3861931827,8460.1509302043,-8163.6119909324,14668.4870478708,-7695.1678309459,4934.9379743583
160372882909,28299,-2,0,7632.5041923078,-2107.8952945160,16195.3018129104,14103.8329091054,15541.8964935184,9057.9620428122,22541.5101032777,27513.9610869411,-1625.9571587529,-1755.7378130664,15099.1991800093,8462.0855939991,-8164.0013572307,14675.1671134266,-7691.8947205005,4938.5517803148
160372882909,28299,-2,0,7622.4780101257,-2109.5257658903,16164.8947385499,14099.5377121269,15542.2006859390,9059.3369925532,22541.2910847348,27511.4302060020,-1622.7205513980,-1754.0830062985,15100.3186081170,8461.8057369722,-8163.4538108737,14684.9986124595,-7682.3917492818,4943.3823559535
160372882909,28299,-2,0,7627.7344551532,-2105.5712644228,16169.0925939538,14101.6792267677,15545.3642871129,9064.9706361823,22541.1207369793,27514.5208009950,-1618.8512238083,-1749.2037598725,15103.1050106895,8463.6673945861,-8160.8864268440,14690.1577159125,-7677.0622980734,4945.9375722863
160372882909,28299,-2,0,7644.3798644070,-2100.8867011460,16204.9507964910,14104.6359770957,15547.8951680521,9068.5966098355,22541.6926187300,27514.8979995965,-1619.6299564050,-1747.7436362537,15102.3141103960,8463.2901959846,-8160.3753835775,14688.2352198144,-7679.6296821030,4943.0903312297
160372882909,28299,-2,0,7645.8034849352,-2102.0061292537,16228.3614451783,14104.2587784942,15545.3642871129,9066.7836230089,22540.7922091651,27515.2630305012,-1621.7228002585,-1748.7657227869,15099.8805710314,8462.2802771483,-8162.1883704041,14688.3812321763,-7680.3232408219,4940.6081210778
160372882909,28299,-2,0,7632.2243352808,-2108.0169714842,16206.8732925890,14101.2046865916,15543.7094803450,9064.5812698839,22540.4880167445,27514.7033164473,-1622.8787314567,-1749.3619399312,15099.6250493981,8461.4407060675,-8163.0036060912,14691.5326656535,-7679.9217068268,4940.1700839922
160373096794,28306,-2,0,7608.0471216937,-2096.6280072580,16211.7525390150,14103.9545860736,15555.5364816569,9074.6682905501,22551.5484531566,27521.9430960570,-1613.6677849617,-1741.3312600281,15106.5849719808,8467.2325297552,-8152.5150514298,14696.1563904462,-7668.4110656323,4953.7492336466
160373096794,28306,-2,0,7618.8642041692,-2094.4013187394,16242.1352779819,14108.3349569298,15552.5797313289,9075.6295385992,22552.5097012056,27523.3058781012,-1612.0129781938,-1738.4231804874,15108.7264866217,8468.0599331392,-8151.1035985984,14704.5642689508,-7669.2263013194,4955.7325682288
160373096794,28306,-2,0,7612.1598032198,-2095.4720760598,16230.7949845429,14108.4444662012,15557.5806547232,9075.8607248388,22556.6467181254,27526.9196840576,-1611.5992765018,-1737.4862678320,15111.4155476195,8470.1162739023,-8150.7872384810,14710.9644774797,-7667.7053392165,4957.1318533634
160373096794,28306,-2,0,7601.6225777711,-2099.8767823097,16194.4622418296,14105.4147096923,15555.7311648061,9074.7412967311,22556.0139978906,27526.8710132703,-1613.8624681109,-1739.6277824728,15112.5714788177,8470.9558449831,-8151.9431696792,14711.2078314161,-7664.4078933775,4957.8375797791
160373096794,28306,-2,0,7607.8159354540,-2098.7451865052,16181.3211292608,14103.1271826896,15550.4382166881,9071.4925216794,22552.2055087850,27524.0116045169,-1615.3104240328,-1741.7571294169,15110.0040947881,8469.3862120929,-8155.1676093372,14704.5399335572,-7668.3137240577,4954.0169229767
160373096794,28306,-2,0,7620.4825078467,-2094.1701324997,16206.2040692637,14104.1979400100,15550.7667445023,9072.4050989411,22552.7530551421,27525.8854298276,-1618.5470313877,-1744.4096873243,15109.5660577024,8468.8264980390,-8156.7494099242,14702.9216298797,-7671.4894929285,4953.1773518959
160373096794,28306,-2,0,7628.9390571386,-2093.6955923236,16236.3069512037,14104.1736046164,15547.5058017538,9069.5821932782,22550.9279006186,27525.3987219547,-1622.4528620679,-1748.3033503076,15106.4267919221,8468.6439825867,-8161.4704762915,14696.7526075905,-7675.3466528213,4949.0525026730
160373096794,28306,-2,0,7625.1670711235,-2103.2594020265,16225.5993779995,14098.2722716573,15544.6950637877,9066.6011075565,22550.1248326283,27524.8633432945,-1623.4384455106,-1750.9315728214,15108.7751574090,8471.3452112814,-8163.2712954213,14695.4749994241,-7674.6774294961,4950.3179431425
160373130557,28307,-2,0,7615.5059198461,-2109.6474428585,16188.0863686944,14094.2934347962,15544.6463930004,9064.7394499426,22550.5020312298,27524.2671261502,-1622.8787314567,-1751.8198146894,15110.6124796292,8473.2312042889,-8162.5168982183,14700.4637551215,-7669.1654628353,4954.0047552799
160373130557,28307,-2,0,7613.1453866625,-2107.2625742812,16174.2273620130,14095.5710429626,15546.0091750446,9067.1729893072,22551.9134840613,27524.6564924485,-1621.0170738428,-1749.9338216819,15111.9509262797,8476.4799793407,-8160.9229299345,14704.8197905841,-7663.0572790302,4957.5942258427
160373130557,28307,-2,0,7627.9656413928,-2100.4364963635,16200.0472146713,14100.0365876966,15549.2092793090,9070.1054042415,22553.7021354942,27526.9683548449,-1617.5736156419,-1744.2271718719,15114.2262855856,8477.4047242992,-8158.3920489953,14711.0618190543,-7657.2897907361,4959.9182559358
160373130557,28307,-2,0,7639.4276118000,-2095.6180884217,16237.2560315559,14105.3660389050,15553.7721656176,9075.5930355087,22556.5858796413,27530.1319560188,-1613.4487664189,-1740.5646951282,15115.5768999330,8479.2663819131,-8155.4231309705,14715.5882022724,-7653.9680095034,4961.1228579213
160373130557,28307,-2,0,7632.6623723665,-2099.4265775272,16233.2285239075,14101.7157298582,15552.3607127861,9075.2401723008,22555.4907869272,27527.7957582288,-1613.9719773823,-1741.1974153630,15114.5669810967,8478.1712891991,-8156.9440930734,14714.7729665853,-7655.8418348142,4961.5487273101
160373130557,28307,-2,0,7622.4293393384,-2103.5757621439,16196.7376011355,14099.5012090364,15547.6031433284,9070.9084722319,22552.0229933327,27523.9020952455,-1614.0084804728,-1742.0004833533,15113.6544038350,8474.7399986950,-8158.7327445064,14710.1492417926,-7659.5043115579,4960.3319576278
160373130557,28307,-2,0,7619.3630797390,-2100.6433472095,16179.4959747374,14100.4746247822,15551.7523279450,9075.5930355087,22552.7408874452,27524.5469831771,-1612.1346551621,-1739.7981302284,15116.0149370186,8473.6205705873,-8156.6033975623,14709.4678507705,-7660.6602427561,4960.1981129628
160373130557,28307,-2,0,7627.4911012167,-2094.3161448616,16199.2441466810,14103.4800458975,15554.1371965223,9078.1360841447,22552.2176764819,27524.1454491819,-1610.7475377242,-1738.0338141890,15116.3556325296,8473.0608565334,-8153.5371379630,14710.4169311227,-7659.5286469515,4958.7501570408
160373161570,28308,-2,0,7639.9508227634,-2089.9844447926,16238.5458074191,14106.9721748857,15555.9623510457,9080.0585802427,22553.4101107705,27525.6055728007,-1610.2243267609,-1737.9364726145,15117.7305822706,8472.6106517510,-8152.8314115472,14706.7301189853,-7663.6899992650,4957.6063935395
160373161570,28308,-2,0,7633.9399805329,-2092.6004996096,16241.7824147740,14107.4467150618,15555.8650094711,9079.4866984920,22555.3326068685,27524.9363494754,-1612.0859843748,-1740.7228751869,15117.3047128818,8470.7003233498,-8153.9021688677,14703.6760270827,-7672.5237471584,4955.3188665368
160373161570,28308,-2,0,7611.2350582613,-2096.2508086564,16207.1044788286,14106.4002931350,15556.9722698820,9076.9071467656,22558.9585805218,27526.0922806736,-1612.5848599445,-1743.3632653975,15120.4926494495,8472.9635149588,-8150.5925553318,14702.2037357672,-7676.9406211052,4957.5090519649
160373161570,28308,-2,0,7594.9060091249,-2099.4387452241,16180.9804337498,14107.8117459665,15559.6248277894,9077.4546931226,22563.1564359257,27529.5722419650,-1608.7642031421,-1742.1343280184,15124.3376416455,8476.2366254042,-8146.5893830771,14701.4250031705,-7675.6873483324,4962.9601801416
160373161570,28308,-2,0,7598.3372996289,-2104.4275009215,16197.0296258592,14109.9045898200,15564.3945649440,9079.6813816412,22567.7436576279,27532.4681538088,-1605.6006019681,-1737.6809509812,15126.3331439245,8478.9500217957,-8141.5032858051,14700.6827736643,-7671.5259960189,4966.1116136187
160373161570,28308,-2,0,7619.8132845214,-2096.6766780453,16241.2713715075,14113.0925263876,15567.1809675165,9085.9842485955,22567.8166638089,27535.6195872860,-1602.2666530386,-1734.4808467167,15124.6783371565,8478.4146431355,-8140.9070686608,14701.0478045690,-7670.3213940335,4965.0773593888
160373161570,28308,-2,0,7639.6222949492,-2091.1525436876,16256.0064523600,14110.5981485389,15566.4752411007,9088.3326140823,22564.9572550555,27532.5411599898,-1603.2157333908,-1732.8868784329,15121.4173944080,8475.9446006805,-8142.3306891890,14705.8175417236,-7665.4056445170,4964.9191793301
160373161570,28308,-2,0,7639.5614564651,-2090.9943636289,16225.2465147916,14105.0618464845,15565.4166514771,9087.5782168793,22563.6309761018,27531.4460672757,-1601.8651190435,-1731.2685747555,15120.3466370876,8474.6913279077,-8143.5109557809,14712.6801227317,-7659.6016531325,4966.6834953694
160373190453,28309,-2,0,7630.7155408748,-2092.2719717953,16196.6037564704,14102.1415992470,15563.2751368363,9084.6944727322,22561.3191137054,27528.0877829526,-1603.3130749654,-1732.1203135331,15117.1952036104,8473.9369307047,-8144.9345763091,14715.4786930010,-7658.7620820517,4969.0561962499
160373190453,28309,-2,0,7637.8701466067,-2090.6049973306,16206.2770754447,14103.9302506799,15563.9565278584,9086.0329193828,22560.6742257738,27527.6254104733,-1602.3883300069,-1732.1568166236,15116.6111541629,8474.4114708808,-8145.2631041234,14716.1114132358,-7659.6989947070,4968.6059914674
160373190453,28309,-2,0,7654.3817111954,-2085.7257509046,16246.0167732684,14108.9798448615,15566.3413964357,9088.8923281362,22564.4462117889,27530.7768439504,-1599.6992690090,-1729.8571219240,15118.8865134688,8477.4655627833,-8142.4645338541,14719.0559958669,-7660.4655596069,4970.5771583527
160373190453,28309,-2,0,7657.3993000075,-2083.6329070511,16264.1344738378,14110.7806639913,15568.6167557416,9090.9730042929,22567.3299559359,27534.6948423274,-1597.9471206665,-1728.7498615131,15122.3299716697,8481.2983872826,-8140.3595223037,14723.8379007184,-7659.0662744722,4973.2905547443
160373190453,28309,-2,0,7647.1054284953,-2086.2611295648,16235.5647216975,14107.6048951205,15567.8623585386,9090.3037809676,22569.0090980975,27534.5001591783,-1598.1053007252,-1728.6890230290,15122.5246548189,8483.7440943440,-8141.4302796241,14727.1840173447,-7656.8395859536,4974.1179581282
160373190453,28309,-2,0,7637.4442772179,-2089.2300475896,16203.7948652928,14103.8207414085,15566.4509057071,9089.2938621313,22566.7337387916,27534.4149853005,-1598.2391453903,-1730.3438297969,15123.4493997774,8484.2186345201,-8142.8904032429,14730.8951648757,-7652.8485813957,4973.6555856489
160373190453,28309,-2,0,7634.9133962787,-2087.0276944647,16208.0657268777,14105.5485543574,15564.0660371298,9087.9067446935,22566.7580741853,27536.1427982494,-1597.8254436983,-1729.0662216305,15123.8509337726,8485.0825409945,-8141.7831428320,14730.7613202106,-7648.9305830187,4976.1742988913
160373190453,28309,-2,0,7641.8854865583,-2085.6040739364,16241.3200422948,14107.7995782696,15568.0692093845,9090.2916132708,22569.6053152418,27540.0851320200,-1595.7204321479,-1727.2775701976,15124.1551261932,8487.0050370925,-8138.0476599074,14729.9582522203,-7644.8179014926,4976.4541559182
160373391492,28314,-2,0,7625.6416112996,-2098.0151246958,16221.8030565908,14093.6850499550,15556.2178726790,9084.7918143068,22558.0338355632,27527.2360441750,-1604.6758570096,-1734.3713374453,15121.8675991904,8480.7265055319,-8153.8413303835,14720.5526225762,-7645.6331371797,4974.6898398789
160373391492,28314,-2,0,7623.6096059302,-2097.6865968816,16193.7565154139,14092.3466033045,15556.1935372854,9083.2100137198,22557.8269847172,27524.7781694167,-1605.0773910047,-1736.0748150005,15121.4782328921,8478.0252768372,-8154.9850938849,14722.7793110948,-7653.0797676354,4975.0305353899
160373391492,28314,-2,0,7634.8038870073,-2093.4279029935,16208.5524347506,14093.7702238328,15557.3981392708,9085.4732053289,22559.4452883947,27526.2626284291,-1605.0895587016,-1736.7197029322,15122.0014438555,8477.5142335706,-8154.2915351660,14721.7572245616,-7660.3438826387,4975.7971002898
160373391492,28314,-2,0,7644.2825228324,-2089.0840352277,16243.5710662070,14096.1307570164,15558.7852567086,9087.2740244587,22560.4673749278,27528.2337953144,-1604.2134845303,-1736.7927091131,15123.4737351711,8479.0838664608,-8152.1621882220,14719.9807408255,-7664.9554397346,4975.0183676931
160373391492,28314,-2,0,7644.7935660989,-2092.5639965191,16255.5684152744,14094.0379131629,15557.1547853344,9084.2321002530,22560.6985611674,27526.2869638228,-1605.2842418507,-1738.9585591476,15123.1330396600,8477.3803889056,-8153.2572809360,14717.0726612848,-7666.9387743167,4973.2905547443
160373391492,28314,-2,0,7633.7452973837,-2101.7262722268,16220.7079638767,14089.1951698274,15556.4125558282,9081.1658406536,22559.7738162089,27525.1066972310,-1606.2089868093,-1740.7472105806,15124.4836540074,8477.8914321721,-8153.5858087503,14717.1821705562,-7665.5151537884,4973.4609024998
160373391492,28314,-2,0,7623.8529598667,-2100.1079685493,16193.1359628759,14090.2172563605,15558.0430272024,9080.6426296902,22561.3434490991,27527.0535287226,-1602.9967148480,-1737.5106032256,15128.5111616558,8480.3858100208,-8148.5727176592,14723.6067144787,-7656.3407103839,4979.9827879969
160373391492,28314,-2,0,7633.0517386648,-2092.4909903382,16202.0670523439,14097.8098991780,15562.3868949682,9084.8039820037,22564.3367025175,27532.1274582978,-1600.2833184565,-1732.8138722520,15132.2344768836,8483.8779390090,-8144.5695454045,14726.6729740781,-7652.7025690338,4982.9030352344
160373400568,28315,-2,0,7647.2027700699,-2084.8618444302,16241.0280175710,14103.3827043229,15562.7884289634,9086.2884410161,22566.7580741853,27534.3298114227,-1599.4437473757,-1732.3393320759,15133.0740479644,8484.5836654247,-8144.0463344411,14726.7459802590,-7653.4691339337,4981.5524208870
160373400568,28315,-2,0,7645.7183110575,-2085.1295337603,16257.6612591280,14105.2443619368,15562.8249320539,9086.3979502875,22567.2204466645,27536.1671336430,-1599.2003934393,-1731.8404565062,15133.0618802675,8485.3623980214,-8144.8250670377,14727.0501726796,-7657.7156601249,4982.1243026377
160373400568,28315,-2,0,7634.0373221075,-2093.4522383872,16228.9576623226,14098.3696132319,15559.9046848164,9082.4434488200,22563.7039822827,27530.4848192267,-1601.7921128626,-1735.6124425213,15130.9690364140,8482.4299830871,-8148.6335561433,14722.9496588503,-7663.0329436365,4978.5591674686
160373400568,28315,-2,0,7624.6803632506,-2099.3049005590,16194.8029373406,14089.2925114019,15557.4346423613,9079.9977417586,22560.3091948691,27525.8245913435,-1605.1869002762,-1738.4475158810,15127.7080936655,8479.4002265782,-8151.7363188332,14720.5891256666,-7663.5074838126,4976.5758328865
160373400568,28315,-2,0,7626.9678902533,-2095.7519330867,16196.8349427101,14090.3267656319,15553.8086687081,9077.6372085749,22558.1798479251,27524.2306230597,-1606.6470238949,-1740.0536518616,15125.4692374500,8478.3781400450,-8153.1112685742,14719.9564054318,-7660.0153548244,4974.4829890329
160373400568,28315,-2,0,7639.4519471937,-2091.8582701034,16230.3569474573,14091.7138830697,15555.5608170506,9078.9148167413,22557.2429352697,27526.7006655148,-1607.7056135185,-1739.2262484777,15124.1064554059,8479.4488973655,-8154.2793674692,14726.0645892370,-7653.2866184814,4972.1832943334
160373400568,28315,-2,0,7643.1265916342,-2095.3138960011,16252.0884539831,14090.3024302382,15553.4679731970,9079.3163507365,22553.6169616165,27525.0458587468,-1609.0318924722,-1738.8003790889,15123.2303812346,8478.7431709497,-8157.0901054353,14734.8496663431,-7645.8886588130,4972.8890207491
160373400568,28315,-2,0,7623.7312828984,-2103.6852714153,16223.8715650507,14083.3546753523,15550.9005891674,9077.0531591274,22551.1225837678,27521.0305187953,-1609.7497865848,-1741.1852476662,15119.8477615178,8475.6404082599,-8160.4970605457,14739.1813664121,-7644.4893736784,4972.0494496683
160373444136,28317,-2,0,7641.4231140790,-2090.9456928416,16266.1664792072,14103.4800458975,15568.3125633210,9095.4507167237,22567.5003036915,27529.8642666887,-1597.7889406078,-1727.7886134641,15130.6405085998,8481.7485920650,-8139.9336529149,14724.9573288261,-7654.6615682223,4983.1342214740
160373444136,28317,-2,0,7631.7254597111,-2095.2043867297,16253.7067576605,14101.9347484010,15565.8303531691,9093.2118605083,22568.2303655008,27530.7768439504,-1597.1075495857,-1728.3848306084,15131.1758872600,8485.0338702072,-8139.1427526214,14726.1254277211,-7650.4393774248,4986.4803381003
160373444136,28317,-2,0,7622.1981530987,-2100.0227946716,16215.0256494604,14098.6129671683,15569.2981467637,9095.0370150317,22571.6008175208,27532.3221414470,-1595.6717613606,-1728.0563027942,15133.1835572358,8486.5670000069,-8138.0233245137,14726.9649988019,-7646.3875343827,4989.1937344918
160373444136,28317,-2,0,7619.4360859199,-2100.4243286667,16201.2639843536,14095.7778938086,15566.5239118880,9090.1334332121,22568.9239242197,27529.1098694857,-1596.6086740160,-1730.6480222175,15133.2687311135,8485.3623980214,-8136.9160641028,14726.0280861465,-7646.4605405637,4989.1207283109
160373444136,28317,-2,0,7632.7353785474,-2094.5594987981,16230.8923261175,14100.1582646648,15571.3909906172,9094.1974439510,22571.8685068509,27534.1837990609,-1596.1949723240,-1729.0783893273,15135.4102457544,8486.9685340020,-8135.2490896381,14725.7482291196,-7647.3244470381,4989.3032437633
160373444136,28317,-2,0,7643.3942809643,-2092.4179841572,16264.4021631679,14103.4557105038,15572.2427293948,9095.7184060538,22572.9270964745,27537.4934125967,-1594.4671593751,-1728.2874890339,15136.5175061653,8489.2073902175,-8134.5068601319,14724.6774717991,-7649.2956139234,4990.0576409663
160373444136,28317,-2,0,7634.3171791344,-2095.3017283043,16255.0087012206,14099.9514138188,15567.1687998197,9091.3623705912,22571.1141096479,27534.6948423274,-1594.8321902798,-1729.7111095621,15137.1258910064,8488.1609682907,-8135.2125865476,14724.2272670167,-7648.3952043585,4989.3397468537
160373444136,28317,-2,0,7620.2634893039,-2098.5261679623,16218.3109276026,14096.1794278037,15569.8578608175,9091.3136998039,22571.3209604939,27533.6605880975,-1595.7812706320,-1729.8449542272,15136.6635185271,8488.3921545303,-8137.0499087679,14726.2471046893,-7645.9860003876,4989.0233867363
160373475476,28318,-2,0,7620.0079676706,-2099.4265775272,16200.7407733902,14093.5633729868,15567.0106197610,9091.6543953150,22568.5588933151,27528.8908509429,-1598.0444622411,-1730.6115191270,15134.2543145562,8484.8756901485,-8139.2644295897,14729.4107058633,-7647.7138133364,4986.2491518607
160373475476,28318,-2,0,7629.0972371973,-2095.6545915121,16225.2221793980,14094.3421055835,15566.8524397023,9091.6422276181,22566.6120618234,27527.7105843511,-1599.0665487742,-1730.3316621001,15131.8694459789,8482.6855047204,-8139.9336529149,14731.1385188121,-7655.5741454841,4983.8034447993
160373475476,28318,-2,0,7639.3424379223,-2092.5639965191,16262.5161701603,14099.5377121269,15568.2395571401,9093.2726989924,22568.6805702833,27530.8985209187,-1599.4315796789,-1730.0153019827,15131.4192411965,8482.8923555664,-8139.6781312816,14728.7658179317,-7665.5394891821,4981.7592717330
160373475476,28318,-2,0,7640.3766921522,-2093.9511139569,16262.2728162239,14099.2578550999,15568.4464079861,9094.6598164302,22568.4007132564,27529.4140619063,-1600.5388400898,-1730.9887177286,15130.9081979299,8482.2718030284,-8141.8439813161,14731.4305435359,-7667.4133144928,4980.7493528967
160373475476,28318,-2,0,7628.9633925323,-2096.8470258008,16230.9409969048,14096.5687941021,15568.9574512526,9095.6332321761,22568.4615517405,27528.9760248206,-1597.2778973412,-1727.3019055912,15132.8306940279,8484.5714977279,-8139.9701560054,14741.5297318989,-7657.9711817582,4985.6651024132
160373475476,28318,-2,0,7625.3495865759,-2095.3625667884,16212.8597994259,14095.7413907181,15569.9186993016,9097.3245420345,22567.4638006010,27527.7349197447,-1595.6717613606,-1724.7223538647,15133.6459297151,8483.2817218647,-8139.5564543134,14743.6590788429,-7653.8463325352,4986.7601951273
160373475476,28318,-2,0,7633.8913097456,-2092.9046920301,16230.0892581272,14095.4250306007,15568.3490664115,9096.3997970759,22565.0302612364,27525.1553680182,-1597.9836237570,-1726.6691853564,15130.1781361205,8480.0816176003,-8141.9413228907,14732.2092761325,-7655.6228162714,4982.0756318504
160373475476,28318,-2,0,7642.2991882502,-2088.2687995406,16263.6355982680,14097.7247253002,15566.0858748024,9094.8788349730,22562.6088895686,27525.3257157738,-1600.5023369993,-1728.1293089752,15129.5575835825,8479.1447049449,-8144.0463344411,14731.3453696581,-7653.4204631464,4980.5668374444
160373505459,28319,-2,0,7634.5361976772,-2094.1701324997,16264.6698524980,14095.4371982975,15563.7010062251,9092.2019416720,22561.1609336467,27525.1918711087,-1602.4613361878,-1731.0738916063,15129.3142296461,8479.8382636638,-8146.0175013264,14731.7712390469,-7649.8796633709,4980.7371851999
160373505459,28319,-2,0,7622.9890533922,-2100.1201362461,16226.7918122882,14091.0933305317,15562.4842365428,9090.0725947280,22560.3700333532,27522.7583317441,-1602.4248330973,-1730.1978174351,15130.5796701157,8481.1158718302,-8147.4167864610,14734.6184801035,-7643.8323180499,4983.8156124961
160373505459,28319,-2,0,7616.8200311030,-2102.0182969505,16200.8624503585,14089.5115299448,15561.3769761319,9089.7562346106,22558.7882327662,27522.6974932600,-1601.9502929213,-1730.5263452493,15131.4070734996,8481.1280395270,-8148.2320221482,14737.8550874584,-7643.3577778738,4985.0202144816
160373505459,28319,-2,0,7622.1981530987,-2097.1512182213,16214.7701278271,14091.5922061015,15558.4080581071,9088.5394649283,22557.2551029665,27521.5658974555,-1604.5663477382,-1731.6579410538,15128.5720001399,8479.3393880941,-8151.0305924174,14733.2070272720,-7652.2645319482,4981.6375947648
160373505459,28319,-2,0,7634.6822100391,-2093.9267785633,16249.1195359583,14091.6165414951,15555.1471153586,9085.9720808987,22554.8824020861,27521.0791895826,-1609.7741219784,-1735.7584548831,15124.9460264866,8475.4457251107,-8155.7394910879,14727.5855513398,-7658.9811005945,4977.1720500308
160373505459,28319,-2,0,7633.2342541171,-2096.6766780453,16256.8095203504,14088.5016111084,15548.2845343504,9080.5452881156,22550.0761618410,27518.1102715578,-1611.2829163844,-1738.9342237539,15122.8896857236,8474.9955203283,-8159.5966509808,14728.8874948999,-7657.3141261297,4976.3811497373
160373505459,28319,-2,0,7618.2193162376,-2102.0669677378,16223.8837327475,14082.9044705699,15550.8640860769,9081.0684990790,22551.0495775868,27518.6821533084,-1611.5506057146,-1738.8490498762,15123.1695427505,8475.7742529249,-8159.8400049172,14730.0920968854,-7650.8895822072,4978.1332980798
160373505459,28319,-2,0,7617.8421176361,-2101.5437567744,16197.6623460940,14081.0306452592,15551.0831046197,9081.1050021695,22551.0252421932,27515.4942167408,-1611.0882332353,-1738.6056959397,15122.4151455475,8474.4114708808,-8158.8787568682,14727.8289052763,-7646.6430560160,4979.4230739430
160373600586,28322,-2,0,7639.3546056191,-2093.0385366952,16240.1397757029,14089.0004866782,15559.8073432418,9092.9685065718,22553.6291293133,27519.8624199003,-1601.4392496547,-1728.8228676941,15129.9226144872,8476.0419422550,-8150.7872384810,14737.7942489743,-7646.6795591065,4984.7038543642
160373600586,28322,-2,0,7644.2460197419,-2093.9754493506,16267.5535966450,14088.0879094165,15557.1182822439,9089.5007129773,22552.4245273278,27519.9475937780,-1605.0408879143,-1732.9963877043,15125.8586037484,8474.7765017855,-8153.4032932979,14723.6553852660,-7654.8805867652,4980.5911728380
160373600586,28322,-2,0,7638.3446867828,-2100.6920179968,16250.9811935722,14083.3911784428,15555.7068294124,9088.1622663268,22551.5362854598,27519.8015814162,-1605.7709497237,-1735.5029332499,15127.6107520909,8475.6647436535,-8154.3402059533,14722.1465908600,-7654.5033881636,4983.4505815914
160373600586,28322,-2,0,7628.3793430848,-2103.7217745057,16213.2978365115,14079.8868817578,15557.8483440533,9088.5759680188,22552.3515211469,27520.9940157048,-1603.3009072686,-1734.1279835089,15131.6990982234,8480.0086114193,-8152.0283435569,14731.7590713501,-7645.0004169449,4990.1428148440
160373600586,28322,-2,0,7628.8538832609,-2103.4297497820,16204.4032501339,14081.0306452592,15560.2575480242,9089.5858868551,22553.2154276213,27522.2594561744,-1599.5045858598,-1731.6944441443,15133.8649482579,8482.5638277521,-8149.1689348035,14742.0529428623,-7643.2482686024,4994.6813657590
160373600586,28322,-2,0,7641.7151388027,-2097.6257583974,16232.9121637901,14085.1798298758,15562.7640935697,9092.0924324006,22557.2185998761,27525.1918711087,-1596.1219661431,-1729.0783893273,15135.2398979989,8484.0847898550,-8146.7353954389,14745.1313701585,-7646.5213790478,4995.9589739254
160373600586,28322,-2,0,7647.7381487301,-2095.9222808422,16264.7793617694,14088.4772757148,15560.8902682590,9090.5593026009,22560.4065364437,27528.8543478524,-1595.3919043337,-1728.0563027942,15134.8383640037,8486.3723168577,-8144.4478684362,14743.7320850239,-7645.9860003876,4997.6016129965
160373600586,28322,-2,0,7638.3690221764,-2098.6113418401,16254.0596208684,14085.6665377487,15562.9344413253,9091.0703458675,22560.4552072310,27530.1319560188,-1596.4869970478,-1728.5308429703,15135.9699598082,8486.3479814641,-8144.1923468029,14740.0331051897,-7643.5159579325,4998.0639854758
160373637817,28323,-2,0,7628.0508152706,-2103.9894638358,16217.4105180377,14082.6489489366,15562.1313733350,9089.5007129773,22559.2992760328,27528.6961677937,-1598.5555055077,-1729.7232772590,15136.4566676812,8487.2605587258,-8144.5695454045,14736.8573363189,-7640.9242385092,4998.2099978376
160373637817,28323,-2,0,7625.3374188791,-2101.7749430141,16202.2008970090,14084.0725694649,15561.4256469192,9088.6976449870,22556.9144074555,27527.8930998034,-1599.7114367058,-1731.4875932983,15135.8604505368,8486.6035030974,-8146.0540044169,14730.6274755456,-7644.5137090720,4997.5772776029
160373637817,28323,-2,0,7635.4001041516,-2096.2629763533,16227.4975387039,14086.0315686534,15559.3328030657,9086.7629811921,22556.2573518271,27528.1242860430,-1603.2765718750,-1737.0117276559,15133.6094266246,8482.9531940505,-8148.5605499624,14721.2826843855,-7653.7976617479,4992.5641865118
160373637817,28323,-2,0,7646.8499068620,-2096.3603179279,16259.9609538275,14087.6133692404,15556.9357667916,9084.4389510990,22555.4786192304,27528.8786832461,-1606.1116452347,-1740.1753288299,15132.8063586343,8482.1379583633,-8151.5903064713,14719.1290020479,-7655.1482760953,4991.2987460422
160373637817,28323,-2,0,7636.0693274769,-2104.4031655278,16253.3417267558,14083.5250231079,15555.1714507522,9083.2951875976,22554.9675759638,27528.4649815541,-1605.9778005696,-1740.8688875488,15133.6580974119,8484.6688393025,-8150.2640275176,14724.5557948309,-7651.5223024420,4992.6371926927
160373637817,28323,-2,0,7621.2612404434,-2109.8299583109,16216.3032576268,14078.9864721929,15554.1858673096,9080.2897664823,22555.8679855287,27528.1242860430,-1604.3594968922,-1740.4916889473,15135.5562581163,8483.8414359185,-8148.7187300211,14729.1673519268,-7651.5466378357,4994.5231857003
160373637817,28323,-2,0,7626.2986669281,-2103.8434514740,16202.6511017914,14083.1478245064,15560.7320882003,9086.3371118033,22557.9243262918,27528.4163107668,-1602.3274915228,-1737.0238953527,15136.0916367765,8485.0825409945,-8144.7398931600,14730.8586617852,-7649.8188248868,4996.3605079206
160373637817,28323,-2,0,7640.5713753014,-2090.8848543575,16230.8801584207,14091.7017153729,15566.3170610420,9091.9220846451,22562.1586847862,27529.5722419650,-1597.9471206665,-1732.5826860124,15140.1313121217,8487.8567758701,-8138.1815045724,14737.9524290330,-7643.9053242309,4999.3050905517
160373744108,28325,-2,0,7638.3690221764,-2095.9709516295,16214.4294323161,14084.7052896997,15572.4982510281,9099.5877336435,22560.1875179009,27528.6840000969,-1586.8258457703,-1719.6119211991,15143.6964472908,8485.4719072928,-8138.0476599074,14757.4085762529,-7626.9070517692,5009.2582665529
160373744108,28325,-2,0,7648.6385582950,-2090.7023389052,16234.1776042597,14090.3754364192,15579.9813845742,9104.7225017028,22565.7359876521,27533.7335942784,-1580.9975189921,-1713.7105882400,15148.5026875359,8488.0757944129,-8129.8466322487,14765.7799516670,-7620.4946755435,5014.6363885486
160373744108,28325,-2,0,7666.2695509914,-2081.8807587086,16276.3143383575,14100.6206371441,15585.4568481445,9112.2056352489,22572.8175872031,27540.3893244406,-1576.8605020723,-1710.4009747041,15152.4815243970,8493.0158793230,-8124.9795535195,14762.2026488011,-7625.9214683266,5015.5002950230
160373744108,28325,-2,0,7668.7517611433,-2081.6130693784,16294.1156788095,14103.7112321371,15589.0949894946,9115.7586027212,22579.2421311256,27546.8138683631,-1574.4269627078,-1708.5149816966,15156.9105660405,8498.2723243506,-8122.0958093725,14759.8177802238,-7629.4379327084,5018.7855731652
160373744108,28325,-2,0,7654.7345744033,-2086.6626635600,16264.3413246838,14103.6260582594,15590.9931501990,9116.9388693130,22581.7608443680,27548.4808428278,-1571.6892309226,-1707.9674353395,15159.7699747939,8501.8617949133,-8120.0394686094,14762.2756549820,-7626.7853748010,5022.3263729407
160373744108,28325,-2,0,7646.4970436541,-2090.1304571545,16231.9995865284,14098.5764640778,15590.1535791182,9116.7928569512,22582.2597199377,27548.5538490088,-1572.7599882430,-1707.6510752221,15161.6316324078,8503.9059679796,-8121.2684059885,14768.4933480586,-7620.2391539102,5023.5188072294
160373744108,28325,-2,0,7650.9990914786,-2088.2931349342,16238.1199380303,14100.9856680488,15588.1580768392,9116.1358013227,22579.4124788811,27548.3835012532,-1573.9280871380,-1709.4032235647,15159.2345961337,8503.2732477448,-8123.4464237198,14774.4920225923,-7616.6983541348,5021.3164541044
160373744108,28325,-2,0,7656.9612629219,-2086.5409865917,16270.8875455745,14100.5719663568,15582.1837376992,9112.1326290680,22576.5409024309,27546.0838065537,-1580.3039602732,-1715.4140657952,15154.3310143141,8499.7932864534,-8129.3599243758,14764.8795421021,-7623.7799536857,5014.1496806757
160373794282,28328,5,0,7619.2535704676,-2094.4621572235,16264.3656600774,14085.7882147169,15569.8213577271,9097.5800636677,22561.9153308497,27537.9071142887,-1591.1332104457,-1723.7611058157,15145.5581049047,8490.5823399585,-8140.5785408465,14760.4505004586,-7618.1098069662,5010.5480424161
160373794282,28328,5,0,7601.6590808616,-2102.6145140948,16225.4046948503,14081.7728747654,15567.1566321228,9094.1122700732,22560.5403811087,27536.2401398239,-1592.2769739470,-1727.4114148626,15143.8667950463,8488.2948129557,-8142.6835523969,14759.9759602825,-7617.6474344870,5010.6575516875
160373794282,28328,5,0,7597.7045793942,-2101.7019368331,16213.1396564528,14081.2739991956,15566.1467132865,9093.6985683812,22558.7760650694,27532.8818555008,-1594.3941531942,-1730.5628483397,15139.9001258820,8484.9608640263,-8144.7155577663,14753.1620500617,-7624.0111399254,5007.4574474231
160373794282,28328,5,0,7612.4639956404,-2095.8857777518,16241.6850731994,14085.8612208979,15566.4387380103,9095.0005119413,22558.8247358567,27533.4902403420,-1594.3576501037,-1729.3825817479,15138.4400022633,8483.2938895615,-8144.1923468029,14745.2165440363,-7634.7917193105,5004.3303493396
160373794282,28328,5,0,7623.1837365414,-2090.8240158734,16281.0475724217,14092.7603049965,15571.0137920157,9099.4782243721,22563.2537775003,27536.7998538778,-1591.7294275900,-1724.3086521728,15140.0948090312,8484.5228269406,-8139.3739388611,14743.5982403588,-7639.7926427047,5005.6079575060
160373794282,28328,5,0,7618.4018316900,-2089.0718675309,16278.3463437270,14091.5313676174,15570.6852642015,9100.2204538783,22563.3876221653,27538.2599774966,-1588.7726772620,-1721.4857465098,15143.0028885719,8486.5670000069,-8132.9737303322,14749.7185918608,-7637.1522524941,5011.1199241668
160373794282,28328,5,0,7613.1697220561,-2091.0917052035,16247.7810893077,14090.6431257493,15578.3387455031,9105.6107435709,22571.5278113399,27540.7178522548,-1581.5572330460,-1715.7060905189,15149.1840785579,8491.4949172202,-8128.6298625664,14754.8776953137,-7627.7344551532,5016.8022385831
160373794282,28328,5,0,7614.1918085892,-2088.6703335358,16232.3402820394,14089.2560083115,15582.3662531515,9109.1150402559,22573.5476490125,27543.2365654971,-1578.3814641752,-1712.1652907435,15152.1894996732,8493.9649596752,-8123.5802683849,14759.7326063460,-7620.8597064482,5020.8297462315
160373813075,28329,5,0,7625.5442697250,-2085.3242169094,16256.4201540520,14091.7625538570,15582.5122655134,9106.3894761676,22572.2822085429,27543.9909627002,-1579.6590723416,-1711.6177443864,15152.3841828224,8496.4715052208,-8123.4585914167,14760.7668605760,-7614.9340380954,5020.5863922950
160373813075,28329,5,0,7634.7552162200,-2085.9082663569,16289.8569849215,14091.3975229523,15579.2391550680,9108.0807860259,22573.4989782252,27546.1689804315,-1582.2751271586,-1713.6740851495,15151.2769224115,8495.8996234701,-8126.9872234953,14760.8398667569,-7616.9052049808,5016.8144062799
160373813075,28329,5,0,7624.7290340379,-2091.0430344162,16286.0849989064,14089.9617347272,15577.2193173954,9106.1826253216,22572.6959102349,27546.7895329694,-1584.1854555598,-1716.6795062648,15150.9605622941,8495.9239588637,-8128.9462226838,14766.9237151684,-7621.7601160131,5017.4471265147
160373813075,28329,5,0,7604.8348497324,-2097.3093982800,16248.5233188139,14086.9806490056,15576.3554109210,9105.2578803630,22570.8707557114,27545.4632540157,-1584.9398527628,-1718.2734745486,15150.7780468418,8497.4570886634,-8132.2923393101,14769.3815899266,-7626.7488717105,5016.4128722848
160373813075,28329,5,0,7597.4247223672,-2095.1070451551,16224.4799498918,14085.2163329663,15574.9926288768,9104.3088000108,22568.2303655008,27542.5430067782,-1588.3103047827,-1721.2302248766,15148.4540167486,8495.2425678416,-8134.7745494620,14758.0291287908,-7632.9543970902,5012.9572463871
160373813075,28329,5,0,7599.9069325191,-2088.6946689294,16241.9040917423,14086.7616304628,15570.8921150475,9101.1695342305,22565.0910997205,27541.8372803625,-1591.3278935948,-1725.8539496693,15144.9618877604,8492.4196621787,-8139.3131003769,14745.1557055522,-7634.8038870073,5009.2460988561
160373813075,28329,5,0,7602.2309626123,-2086.6261604695,16274.3431714722,14087.5768661499,15566.4509057071,9097.1906973694,22563.0225912606,27542.0562989053,-1593.9074453213,-1728.4091660021,15143.5991057162,8492.2249790296,-8142.9999125143,14739.9722667056,-7633.5871173250,5006.7030502201
160373813075,28329,5,0,7597.4003869736,-2092.3084748858,16275.1219040689,14085.7882147169,15565.6235023231,9095.4263813301,22563.5579699208,27542.7741930179,-1593.9317807149,-1729.2487370829,15145.2295770905,8494.3908290640,-8142.7565585778,14737.1736964363,-7633.1004094521,5009.7814775163
160373847908,28330,5,0,7583.2006847812,-2099.4022421336,16239.9329248569,14083.3060045651,15568.8722773749,9093.3700405670,22565.9915092854,27543.5894287050,-1588.8335157461,-1725.9147881534,15153.1385800254,8498.0776412014,-8138.4613615993,14741.9312658941,-7631.1170748700,5016.2060214388
160373847908,28330,5,0,7582.2029336417,-2096.3116471406,16221.5597026543,14085.2041652694,15576.0390508036,9102.4471423969,22574.8009217852,27550.0626434148,-1580.4499726351,-1718.0909590962,15159.3684407987,8501.8496272165,-8130.1629923661,14752.4076528586,-7623.8651275635,5026.7797499779
160373847908,28330,5,0,7599.9799387000,-2090.9456928416,16238.5214720255,14090.1929209668,15580.3829185694,9107.3750596102,22578.8284294336,27553.8102940363,-1574.6946520379,-1711.9827752911,15165.0994260024,8504.6360297890,-8123.8722931086,14761.8011148059,-7621.0665572942,5031.9023503404
160373847908,28330,5,0,7615.2503982128,-2085.9569371442,16278.6627038444,14094.7436395786,15585.3473388731,9112.8748585742,22583.3183095613,27556.2803364913,-1570.3142811816,-1708.9773541758,15167.4721268828,8505.8406317744,-8120.8303689029,14767.2887460731,-7620.6528556022,5034.3967281891
160373847908,28330,5,0,7617.0633850395,-2086.3828065330,16291.7186425354,14095.2911859356,15587.3550088489,9113.3493987503,22584.2917253071,27558.1906648925,-1570.4237904530,-1707.8335906745,15169.9300016411,8506.9722275790,-8119.9177916412,14763.5532631484,-7622.4050039447,5034.4453989764
160373847908,28330,5,0,7608.9110281681,-2090.5684942401,16263.1732257888,14094.0987516470,15582.9868056895,9110.2344683636,22581.4079811601,27554.9662252345,-1569.6937286436,-1709.1720373250,15167.8858285748,8506.2543334664,-8122.4365048835,14765.1107283418,-7618.2193162376,5035.2484669667
160373847908,28330,5,0,7601.3548884410,-2092.3693133699,16234.3236166216,14090.9351504730,15585.4446804477,9111.0862071412,22580.8604348031,27553.4574308284,-1571.9569202527,-1710.6808317311,15164.8074012786,8505.5486070507,-8124.0183054705,14765.9381317257,-7611.6487599532,5032.7419214212
160373847908,28330,5,0,7605.7717623878,-2090.4224818783,16241.3443776884,14091.7990569475,15580.8817941391,9109.0176986813,22576.3705546754,27552.0216426033,-1576.4102972899,-1713.6010789686,15159.4657823733,8502.6040244195,-8128.1431546935,14762.0323010456,-7613.4982498703,5026.7310791906
160373882886,28331,5,0,7620.4946755435,-2088.2809672374,16274.1971591103,14091.7017153729,15575.7226906862,9106.3894761676,22572.7932518094,27548.9067122166,-1583.0660274520,-1719.0035363580,15153.8078033507,8498.5521813775,-8134.9448972175,14758.0169610940,-7621.9547991623,5018.7612377716
160373882886,28331,5,0,7622.2468238860,-2093.1723813602,16286.7542222316,14087.8323877832,15569.2373082796,9101.9847699176,22567.3056205423,27545.4267509253,-1589.2350497413,-1724.6371799870,15148.2958366899,8494.0136304625,-8141.2112610813,14755.2548939152,-7629.8272990067,5011.2659365287
160373882886,28331,5,0,7604.1656264071,-2101.1908935666,16253.9257762033,14080.6047758704,15564.4067326408,9096.0469338681,22562.1830201798,27538.7710207631,-1594.3819854974,-1730.3073267065,15144.2196582542,8488.6963469509,-8145.8228181772,14754.2571427757,-7631.2752549286,5007.7616398437
160373882886,28331,5,0,7593.4823885966,-2105.1575627308,16218.5542815390,14074.5939336398,15562.3990626651,9093.4552144448,22558.3258602870,27533.6240850070,-1595.8907799034,-1733.1545677630,15142.5526837894,8483.9874482804,-8148.4875437814,14752.4076528586,-7631.7497951047,5006.7395533105
160373882886,28331,5,0,7597.6072378196,-2101.1422227793,16224.4799498918,14077.4898454837,15562.8249320539,9095.8887538094,22559.4696237883,27534.7556808115,-1591.5347444408,-1729.3825817479,15147.1277377949,8485.9829505594,-8141.7831428320,14757.3477377687,-7624.6316924633,5011.6431351302
160373882886,28331,5,0,7611.2228905644,-2088.4756503866,16269.5369312272,14088.8301389227,15575.5766783243,9105.3187188471,22569.3741290022,27544.2221489398,-1583.3702198726,-1722.1671375319,15154.0998280744,8491.7747742471,-8134.4703570414,14761.0710529966,-7620.6650232990,5016.8995801577
160373882886,28331,5,0,7616.7470249221,-2086.4558127140,16292.2783565892,14093.5512052900,15577.6695221779,9107.9469413609,22571.9050099414,27547.2397377519,-1579.7320785226,-1719.5510827150,15159.1129191655,8494.5611768196,-8131.1364081119,14762.5068412217,-7623.3054135096,5019.1749394636
160373882886,28331,5,0,7602.1336210377,-2091.9921147684,16266.1543115104,14089.9617347272,15575.7470260798,9105.5255696931,22572.1118607874,27546.8260360599,-1580.8758420239,-1720.4028214926,15157.9691556641,8493.6242641642,-8132.3166747038,14758.0534641845,-7633.0030678775,5017.6783127544
160373911585,28332,5,0,7581.7040580720,-2095.4355729693,16226.5971291390,14085.7273762328,15572.9119527201,9102.3011300350,22569.6661537259,27543.7354410669,-1584.1246170756,-1724.0652982363,15156.5577028326,8490.2659798411,-8134.7988848556,14751.7992680175,-7641.5812941377,5015.2691087834
160373911585,28332,5,0,7583.3832002335,-2092.6735057905,16223.5795403269,14087.2483383357,15570.8556119570,9100.3908016338,22569.4349674863,27542.5916775655,-1585.0615297310,-1724.3451552632,15156.1561688375,8490.8256938949,-8135.9183129633,14745.8127611806,-7643.9661627150,5014.1740160693
160373911585,28332,5,0,7595.4292200883,-2089.5099046165,16258.7928549325,14091.4218583460,15571.2936490426,9101.6684098003,22570.4327186258,27546.1081419474,-1585.6455791785,-1724.2964844759,15156.6063736199,8490.2051413569,-8135.8939775697,14746.9200215915,-7641.1432570521,5012.8234017220
160373911585,28332,5,0,7595.0155183963,-2090.1912956386,16284.4545275321,14090.8499765953,15572.2305616980,9103.2258749936,22573.3164627728,27549.3569169991,-1584.3071325280,-1723.1283855809,15156.8983983437,8493.6242641642,-8135.2977604254,14756.5933405657,-7634.1589990757,5016.9360832482
160373911585,28332,5,0,7586.7901553440,-2096.2021378692,16263.6355982680,14086.3965995581,15571.9263692774,9101.4615589543,22573.3286304697,27548.0671411358,-1584.5991572517,-1721.3640695416,15156.0831626566,8493.7946119197,-8134.4703570414,14761.2292330553,-7629.9246405813,5018.0433436590
160373911585,28332,5,0,7577.7982273918,-2101.5194213808,16228.8359853544,14079.6800309118,15570.6730965047,9101.7657513748,22570.8342526209,27545.2077323825,-1583.9177662297,-1722.7268515858,15153.7469648666,8492.0302958804,-8136.2711761712,14763.2247353342,-7626.9313871629,5018.6882315907
160373911585,28332,5,0,7579.3921956756,-2100.8258626619,16221.8638950749,14077.1126468822,15569.7240161525,9102.0334407049,22569.2767874276,27543.2730685876,-1583.1512013298,-1721.3519018448,15151.5446117416,8491.3975756456,-8135.2977604254,14764.8430390117,-7620.6041848149,5021.5963111313
160373911585,28332,5,0,7594.2246181028,-2095.4842437566,16256.3958186584,14080.2640803593,15571.8168600060,9104.0046075903,22569.9946815402,27543.8692857319,-1582.4211395204,-1720.0499582847,15151.1917485337,8493.6851026483,-8134.4095185573,14757.9926257004,-7620.4338370594,5021.8883358551
160374172602,28338,5,0,7637.2009232814,-2055.5255273901,16285.4036078843,14094.0987516470,15588.1337414456,9119.0925516507,22579.0109448860,27549.2839108181,-1567.3331954600,-1716.7160093552,15156.7523859818,8491.1055509218,-8121.5117599250,14756.8123591085,-7636.8115569831,5025.6603218702
160374172602,28338,5,0,7637.8093081226,-2060.0275752145,16309.1184489922,14091.4826968301,15584.0575630099,9116.9267016162,22576.8572625483,27550.6101897718,-1570.6793120863,-1720.2568091307,15155.9736533851,8491.4584141297,-8125.1620689719,14750.0227842813,-7639.3546056191,5023.1172732342
160374172602,28338,5,0,7624.8872140966,-2072.3777874898,16285.9876573318,14083.6467000761,15578.6064348332,9110.2588037572,22573.9856860981,27549.3812523927,-1574.8528320966,-1724.7831923489,15155.1584176980,8491.6774326725,-8130.5888617549,14746.5671583836,-7640.5592076046,5021.5111372536
160374172602,28338,5,0,7612.1476355230,-2079.8852564296,16244.3254634100,14077.0031376108,15574.0435485246,9105.8906005978,22570.8585880146,27547.4222532042,-1576.2156141407,-1725.1968940408,15154.4161881918,8492.4561652692,-8134.1053261367,14750.0227842813,-7636.5803707435,5023.5553103198
160374172602,28338,5,0,7609.0327051363,-2080.1286103660,16232.5714682791,14074.9711322413,15572.3157355758,9104.7225017028,22568.4372163468,27546.8017006663,-1576.5928127422,-1724.7345215616,15154.2336727395,8493.1497239881,-8136.2468407776,14757.5424209179,-7629.8759697940,5026.8405884620
160374172602,28338,5,0,7615.9682923254,-2078.4007974172,16258.3548178469,14076.7354482807,15570.0282085730,9104.5643216441,22567.9505084739,27548.6998613706,-1576.0452663852,-1725.7444403979,15154.1971696490,8494.9870462084,-8138.6560447485,14763.4315861802,-7625.0210587617,5027.4368056064
160374172602,28338,5,0,7621.0908926878,-2080.7004921167,16287.0827500458,14074.7642813953,15568.5437495606,9103.3962227491,22567.4394652073,27550.5250158941,-1575.8870863265,-1726.4258314199,15154.0876603776,8495.0478846925,-8140.4933669688,14765.5974362147,-7620.7015263895,5028.0816935380
160374172602,28338,5,0,7610.6510088138,-2084.3142980731,16276.7280400495,14073.7178594686,15570.6609288078,9104.0897814680,22569.1429427626,27551.0603945543,-1574.3904596173,-1724.8561985298,15156.4360258644,8498.1141442919,-8138.1936722692,14771.9124708658,-7615.5302552398,5032.6810829370
160374179105,28339,5,0,7600.6491620253,-2086.4923158044,16243.8387555371,14071.0409661675,15574.7006041531,9107.3142211261,22572.7932518094,27551.9729718160,-1570.4724612403,-1721.2910633607,15160.1836764859,8501.0952300135,-8134.8962264302,14776.2320032380,-7610.4319902709,5039.0691237691
160374179105,28339,5,0,7601.4278946220,-2084.1196149240,16232.5958036727,14073.1216423242,15576.9881311558,9109.7842635812,22573.6814936775,27554.3335049997,-1567.8077356361,-1718.5654992723,15163.0795883297,8502.6648629036,-8130.8322156914,14778.1666670328,-7608.2539725396,5041.4783277400
160374179105,28339,5,0,7607.8037677572,-2078.8996729869,16258.9997057785,14078.0373918407,15578.8741241633,9109.8937728526,22575.3241327486,27555.2582499582,-1565.9704134158,-1716.6065000838,15164.8925751564,8504.2953342779,-8128.6420302632,14776.7552142013,-7607.8402708477,5041.6730108892
160374179105,28339,5,0,7615.9682923254,-2078.1087726934,16295.3932869759,14082.1379056700,15580.2125708138,9112.5098276695,22578.5972431940,27559.1762483352,-1565.7635625698,-1716.5213262061,15166.5473819243,8506.3030042537,-8128.0579808157,14777.5826175853,-7611.5635860755,5042.3665696081
160374179105,28339,5,0,7609.4099037378,-2083.5964039606,16288.3360228186,14079.8260432737,15578.2900747158,9110.0519529113,22577.7820075069,27558.8477205210,-1566.0555872936,-1718.5898346660,15169.2242752253,8506.2299980728,-8129.3112535885,14781.9508207447,-7611.3567352295,5043.9970409824
160374179105,28339,5,0,7592.7766621809,-2089.2057121960,16248.8275112345,14073.7908656495,15571.9872077615,9104.5764893409,22575.2511265677,27554.5403558456,-1568.7933190787,-1722.5686715271,15166.8637420417,8504.4048435493,-8131.4162651389,14777.9841515805,-7615.8709507508,5042.4152403954
160374179105,28339,5,0,7590.2822843322,-2090.6049973306,16229.0306685036,14070.7002706565,15571.8046923092,9104.2601292235,22570.1650292957,27550.0991465053,-1572.4192927320,-1726.3163221485,15164.0408363788,8500.0609757835,-8135.3585989095,14765.3419145814,-7620.2513216071,5036.9762799155
160374179105,28339,5,0,7604.4333157372,-2084.5819874032,16252.8063480956,14072.6349344513,15569.2859790668,9104.8441786710,22568.2547008945,27548.2983273755,-1576.8118312851,-1728.8228676941,15161.1692599285,8497.8464549618,-8137.2445919170,14755.8511110595,-7623.0620595732,5031.2452947119
160374201840,28340,5,0,7616.3089878364,-2076.0159288399,16291.8768225941,14074.5939336398,15571.7316861283,9106.4989854390,22568.5223902246,27551.7782886668,-1576.4833034708,-1727.6912718895,15161.7289739824,8500.4381743850,-8135.8331390856,14756.2891481451,-7618.8763718661,5030.6004067803
160374201840,28340,5,0,7614.1553054988,-2078.2061142680,16293.7263125112,14075.7863679285,15574.1895608865,9107.7887613022,22570.9924326796,27552.9585552587,-1574.6946520379,-1727.2288994103,15162.1426756744,8502.0564780625,-8134.4095185573,14760.5843451236,-7613.9849577432,5031.1114500469
160374201840,28340,5,0,7606.9398612828,-2081.4913924102,16258.3426501500,14072.7079406323,15572.5347541186,9107.4845688816,22569.1916135499,27549.2960785150,-1576.5441419549,-1728.5795137576,15158.9790745004,8498.1749827760,-8135.3220958190,14757.0922161355,-7621.2247373529,5027.4124702127
160374201840,28340,5,0,7603.7762601088,-2081.0290199309,16235.7715725435,14072.0752203975,15571.4153260109,9106.8275132532,22565.6751491680,27544.7940306905,-1579.9145939749,-1731.4510902078,15152.1164934923,8491.7869419439,-8137.6339582154,14748.9155238704,-7633.7818004742,5022.1681928820
160374201840,28340,5,0,7612.1111324325,-2075.9307549621,16251.9789447116,14076.1879019236,15572.2427293948,9106.6328301040,22565.3222859602,27544.6845214191,-1580.7298296620,-1730.6723576112,15149.7559603086,8488.4164899240,-8137.2202565234,14743.5130664811,-7639.7196365238,5019.2479456445
160374201840,28340,5,0,7627.9656413928,-2070.9176638711,16289.9786618897,14079.6435278213,15573.3256544121,9108.7986801385,22566.9527573344,27547.4587562947,-1580.7298296620,-1728.6403522417,15150.5468606021,8489.7914396650,-8135.4316050904,14747.6500834009,-7636.7020477117,5020.2091936935
160374201840,28340,5,0,7621.2004019593,-2076.8676676175,16295.6853116997,14078.9378014056,15573.1066358692,9108.2267983878,22567.6949868406,27548.7241967643,-1577.4202161262,-1726.6205145691,15151.9826488272,8491.8112773376,-8133.8984752907,14756.2769804483,-7630.8858886303,5023.5918134103
160374201840,28340,5,0,7607.8767739381,-2079.3985485567,16264.7915294662,14077.9522179630,15577.3653297573,9110.9523624762,22571.1749481320,27549.8922956593,-1571.6162247417,-1722.0211251700,15156.2413427153,8494.1474751276,-8129.6762844932,14769.3572545330,-7624.4735124046,5030.8559284136
160374355364,28346,5,0,7612.5248341245,-2076.7581583461,16262.8690333682,14065.8088565337,15567.1687998197,9104.8685140647,22567.4151298137,27552.1433195715,-1582.3359656427,-1730.5263452493,15156.4725289549,8496.1916481938,-8140.5177023624,14773.4577683623,-7613.1575543593,5035.8203487174
160374355364,28346,5,0,7603.3382230232,-2081.7834171340,16234.1167657756,14060.8079331394,15563.9443601616,9102.4349747001,22563.3632867717,27546.5705144266,-1584.2341263470,-1732.4366736505,15154.2945112236,8492.3709913914,-8144.0828375315,14774.1026562939,-7615.0678827605,5033.4963186242
160374355364,28346,5,0,7610.0426239726,-2077.5612263364,16248.6571634790,14061.4649887679,15560.4765665670,9100.2691246656,22558.0338355632,27543.3704101622,-1587.6045783670,-1734.8580453182,15148.4905198390,8487.5282480559,-8149.5217980114,14770.8173781517,-7623.3662519937,5028.6535752886
160374355364,28346,5,0,7623.0863949668,-2074.6531467957,16284.2841797766,14061.9760320344,15556.2057049822,9098.2857900835,22554.6025450591,27541.4235786705,-1592.4594893994,-1738.4961866683,15142.1146467038,8481.5417412190,-8154.8390815230,14766.5951873542,-7631.8228012857,5022.4115468185
160374355364,28346,5,0,7619.1197258025,-2079.2160331043,16291.9863318655,14059.2261325524,15553.1516130796,9095.8400830221,22550.7210497726,27538.2234744061,-1595.1363827004,-1740.2605027076,15139.2917410409,8480.1789591748,-8159.2194523793,14766.2666595400,-7631.8593043762,5020.6472307792
160374355364,28346,5,0,7605.3215576053,-2082.5499820338,16259.5107490451,14053.4099734711,15552.3607127861,9094.7814933985,22551.1347514646,27535.7655996478,-1594.7226810084,-1739.2627515682,15138.3791637792,8479.5340712432,-8159.0369369269,14762.8475367327,-7626.9070517692,5021.6693173123
160374355364,28346,5,0,7606.7938489209,-2078.8875052901,16232.7418160346,14054.7727555153,15554.0398549477,9094.4651332811,22552.3393534501,27536.4713260636,-1591.3400612916,-1736.2451627561,15138.6590208061,8479.4488973655,-8154.8755846135,14760.6208482141,-7626.3473377154,5024.5287260657
160374355364,28346,5,0,7617.1972297045,-2072.4021228835,16243.8022524466,14058.6420831049,15561.4256469192,9100.2691246656,22554.0671663989,27538.0044558633,-1587.8601000003,-1731.1347300904,15140.3868337550,8478.5363201037,-8147.8426558498,14758.7713582970,-7629.0363987132,5025.9766819876
160374391703,28347,5,0,7632.2730060681,-2066.2209328974,16285.7564710921,14066.3077321034,15566.7429304308,9105.4160604217,22559.2141021550,27540.6813491643,-1583.2607106012,-1727.6791041927,15141.8956281610,8479.6314128178,-8142.2333476145,14757.8466133385,-7636.0084889928,5027.4611410000
160374391703,28347,5,0,7637.9918235749,-2067.9609135431,16304.6285688645,14069.6660164265,15572.0358785488,9109.8085989748,22562.3777033290,27543.7719441573,-1579.4522214956,-1723.9922920554,15145.6432787825,8482.3083061189,-8139.4347773452,14757.7006009766,-7641.4474494726,5030.2232081788
160374391703,28347,5,0,7623.8042890794,-2071.7815703455,16277.3972633748,14068.0720481427,15574.3720763388,9110.6116669651,22565.9550061950,27544.3803289985,-1576.0939371725,-1724.2356459918,15149.4152647976,8484.8878578453,-8137.6704613058,14761.4969223854,-7639.3546056191,5034.2020450399
160374391703,28347,5,0,7612.9020327260,-2073.0713462087,16245.0920283099,14065.2126393893,15575.3819951751,9111.7675981633,22566.1253539505,27544.7210245095,-1573.9402548348,-1722.1062990478,15153.6131202015,8488.2704775621,-8136.8552256187,14768.2621618189,-7631.8593043762,5040.6752597497
160374391703,28347,5,0,7618.5478440519,-2071.7937380423,16248.8275112345,14066.6727630081,15574.0922193119,9111.7310950728,22567.4638006010,27547.7264456248,-1573.4292115683,-1721.4370757225,15154.1484988617,8491.9937927899,-8137.3784365821,14769.2599129584,-7624.4978477983,5044.9704567282
160374391703,28347,5,0,7626.5298531677,-2069.9077450348,16280.9745662407,14066.3685705875,15570.6365934142,9109.9181082462,22565.8576646204,27548.6876936738,-1576.6901543168,-1724.7953600457,15154.9759022457,8491.4584141297,-8140.8340624798,14766.6803612319,-7624.5830216760,5042.1353833685
160374391703,28347,5,0,7622.1494823114,-2073.4850479007,16297.7538201596,14063.7281803769,15567.0714582451,9104.8320109742,22561.9396662434,27547.4587562947,-1581.0340220826,-1729.1027247210,15152.2381704605,8491.4462464329,-8143.4622849936,14766.3640011145,-7622.6361901844,5039.3733161897
160374391703,28347,5,0,7610.3224809995,-2083.5112300828,16267.6387705228,14057.0724502148,15562.3382241809,9099.5268951594,22558.6057173139,27545.1590615952,-1583.8934308360,-1734.1523189025,15151.1430777464,8490.8378615917,-8147.4897926420,14767.0088890462,-7620.1418123357,5038.4850743216
160374488046,28348,5,0,7599.0673614383,-2087.5022346408,16232.1821019807,14052.0593591237,15558.5540704690,9095.4507167237,22554.1645079735,27543.6259317955,-1585.1345359119,-1734.5660205945,15150.8510530227,8491.5800910979,-8148.2928606323,14771.4987691738,-7615.7127706921,5038.3633973534
160374488046,28348,5,0,7601.9754409790,-2082.1362803418,16234.9563368564,14055.8191774420,15561.5351561906,9100.5368139957,22558.8369035535,27548.1279796200,-1584.9398527628,-1732.3028289854,15154.4040204950,8492.6021776311,-8145.6646381185,14776.0616554824,-7611.6000891660,5039.6410055198
160374488046,28348,5,0,7620.6893586927,-2076.8433322239,16271.5324335061,14060.7349269585,15563.5063230759,9103.5787382015,22560.8445735293,27550.9387175861,-1583.5892384154,-1729.8327865304,15156.9957399183,8495.2425678416,-8146.8449047103,14777.7286299472,-7614.7758580367,5040.5657504783
160374488046,28348,5,0,7625.6051082092,-2077.6829033046,16297.8998325214,14061.1972994378,15563.9078570711,9104.4426446759,22562.3777033290,27553.0072260460,-1583.1512013298,-1728.8228676941,15158.5045343243,8497.3840824825,-8145.5429611503,14783.7394721777,-7614.4960010098,5042.9384513588
160374488046,28348,5,0,7611.6365922564,-2082.2701250069,16277.7744619763,14060.6619207776,15564.0782048266,9103.8342598347,22563.4484606494,27553.8589648236,-1578.1137748451,-1725.5497572487,15162.9092405742,8499.8784603312,-8143.6082973554,14793.0720956409,-7605.9056070528,5048.0245486308
160374488046,28348,5,0,7605.5284084513,-2082.5864851243,16245.6274069701,14058.7880954668,15569.4319914287,9109.0907048622,22565.5899752903,27555.5624423788,-1575.6193969964,-1721.4005726321,15165.2089352738,8502.3728381799,-8141.3451057464,14797.2577833480,-7595.7577479025,5052.5387641521
160374488046,28348,5,0,7609.4707422219,-2079.1551946202,16242.8288367008,14059.8466850904,15569.2129728859,9110.0519529113,22565.0059258428,27554.3578403933,-1576.4346326835,-1721.8629451113,15162.0209987061,8500.9127145611,-8142.2090122208,14788.8985756306,-7596.5486481960,5049.5333430368
160374488046,28348,5,0,7617.6352667901,-2074.5801406148,16272.0434767727,14063.1562986263,15566.6455888563,9108.7743447449,22563.5458022240,27554.5403558456,-1578.8803397450,-1724.2843167791,15158.7113851703,8498.2966597442,-8145.0805886710,14781.9508207447,-7603.4477322946,5043.2183083857
160374495447,28349,5,0,7625.5564374219,-2076.1497735049,16300.8565828494,14062.2802244550,15566.0615394088,9106.8761840405,22562.5480510845,27553.2749153761,-1582.2994625522,-1728.7133584227,15156.9105660405,8496.9095423064,-8147.0639232532,14780.3446847641,-7611.9651200706,5040.2493903609
160374495447,28349,5,0,7617.9272915139,-2083.0853606940,16281.4734418105,14057.8146797210,15562.5572427238,9103.1163657222,22559.5426299693,27550.5736866814,-1584.8060080977,-1732.4853444378,15153.8199710475,8494.4394998513,-8150.5803876350,14781.2207589354,-7614.9705411859,5038.7405959549
160374495447,28349,5,0,7599.7852555509,-2090.4833203624,16240.0059310379,14050.7817509573,15559.3936415498,9098.4439701422,22555.4177807463,27545.9864649791,-1587.6167460638,-1735.4055916753,15151.7636302844,8491.6652649757,-8154.1211874105,14779.8458091944,-7613.8876161687,5037.3899816075
160374495447,28349,5,0,7599.2620445875,-2089.6315815848,16225.7940611487,14045.6469828980,15554.8915937253,9096.0712692617,22551.6822978216,27541.7156033943,-1588.7605095652,-1735.7706225800,15147.8943026947,8487.2727264226,-8157.7471610637,14772.5086880101,-7619.1927319835,5035.3701439349
160374495447,28349,5,0,7608.4729910825,-2088.9015197754,16251.9302739244,14045.8051629567,15552.2877066052,9095.8887538094,22549.7841371173,27539.9147842645,-1590.4883225140,-1736.0748150005,15145.1565709096,8483.5859142853,-8158.9882661396,14767.8727955206,-7626.2378284440,5033.6423309861
160374495447,28349,5,0,7615.0435473668,-2083.4747269924,16289.4797863200,14051.8525082777,15557.4833131486,9099.4782243721,22551.7188009121,27543.5772610082,-1587.4220629147,-1732.4975121346,15145.5824402984,8484.5106592438,-8154.4010444374,14771.5717753548,-7626.9800579501,5035.2119638762
160374495447,28349,5,0,7611.3810706231,-2084.2534595890,16282.7510499769,14053.3126318965,15560.6104112321,9102.6053224556,22553.9211540371,27545.0738877174,-1583.6135738091,-1730.1978174351,15148.2836689930,8486.4209876450,-8151.8944988919,14775.3072582794,-7625.3009157886,5038.7040928644
160374495447,28349,5,0,7602.0241117663,-2087.3562222789,16247.8540954887,14053.0084394759,15562.5815781174,9103.6639120792,22555.1500914162,27544.1004719716,-1581.5937361365,-1728.1901474593,15149.5856125531,8487.3457326036,-8149.1080963194,14777.2054189838,-7621.4680912894,5041.8311909479
160374501547,28350,5,0,7603.1557075708,-2083.1583668750,16234.5182997707,14055.8070097452,15565.0759559661,9103.4935643237,22555.7949793478,27543.8449503383,-1579.0993582878,-1725.3429064027,15150.6563698735,8487.7716019924,-8143.5961296586,14774.0174824162,-7619.8862907024,5043.3521530508
160374501547,28350,5,0,7618.7668625947,-2074.3976251624,16263.9884614759,14063.5091618341,15569.3711529446,9109.1758787400,22561.6719769133,27549.2839108181,-1577.2011975834,-1723.6515965443,15151.9096426463,8487.8689435669,-8141.5154535019,14770.7200365772,-7619.8376199151,5042.1718864589
160374501547,28350,5,0,7630.9223917208,-2072.8401599691,16299.2747822624,14066.2225582256,15569.6388422747,9108.8473509258,22562.2438586640,27551.3524192780,-1578.2111164197,-1726.2798190581,15152.0678227050,8489.5115826380,-8141.7709751352,14766.7411997161,-7620.7623648736,5041.1741353195
160374501547,28350,5,0,7620.3851662721,-2078.7536606251,16291.5361270830,14061.7205104012,15567.9231970227,9105.4160604217,22560.6985611674,27549.7097802069,-1580.1944510018,-1729.7232772590,15151.7271271939,8489.8766135427,-8142.5740431255,14768.8097081760,-7619.4117505263,5041.4296569527
160374501547,28350,5,0,7610.2129717281,-2083.8519255939,16253.9136085065,14058.3257229876,15568.2152217464,9103.7490859570,22563.1077651384,27550.3059973513,-1579.0263521068,-1729.8936250145,15155.5477839963,8493.9892950689,-8140.5542054529,14774.6623703478,-7613.1940574498,5045.2503137551
160374501547,28350,5,0,7610.9430335375,-2078.5711451727,16239.6774032237,14060.5280761125,15570.6609288078,9105.5012342995,22564.4827148794,27552.3501704175,-1578.2354518133,-1729.8449542272,15157.7014663340,8496.2889897684,-8139.3861065579,14776.8647234727,-7615.3477397874,5046.5887604057
160374501547,28350,5,0,7614.4838333130,-2073.3147001452,16258.4034886342,14063.5943357119,15566.9497812768,9104.1384522553,22563.7891561605,27551.8147917573,-1579.9145939749,-1731.2685747555,15155.8276410233,8494.7315245751,-8140.2500130323,14775.2342520985,-7620.5433463308,5045.0434629091
160374501547,28350,5,0,7622.9038795145,-2071.3557009567,16293.5803001493,14065.4924964163,15566.7794335213,9103.5178997173,22562.8887465956,27553.0923999237,-1581.5328976524,-1732.7408660711,15156.8375598596,8494.9018723306,-8141.2234287781,14774.4433518050,-7620.0566384579,5043.9240348014
160374517977,28351,5,0,7619.2900735581,-2076.3444566541,16292.0958411369,14062.2802244550,15562.9101059316,9101.5954036193,22562.4872126004,27553.7737909458,-1583.5040645377,-1735.4785978562,15156.9349014342,8494.6585183941,-8143.9976636538,14769.9778070710,-7620.1418123357,5043.5346685031
160374517977,28351,5,0,7603.1922106613,-2081.7712494371,16256.2254709029,14055.0039417549,15560.8902682590,9097.8964237851,22559.6886423311,27548.9675507007,-1585.7064176626,-1737.7296217685,15154.7447160060,8493.3930779246,-8147.6966434880,14764.5266788943,-7621.6871098322,5042.1840541558
160374517977,28351,5,0,7598.4468089004,-2082.9150129385,16230.8801584207,14051.0981110747,15558.7244182245,9095.7427414475,22556.5737119445,27546.6435206076,-1586.3634732911,-1738.1554911573,15154.5865359473,8491.1663894060,-8148.2563575418,14765.1107283418,-7621.1882342624,5041.1741353195
160374517977,28351,5,0,7610.6753442074,-2077.6342325173,16247.4890645840,14051.9620175492,15560.7685912908,9098.3709639612,22555.9774948001,27545.5605955903,-1585.5117345135,-1736.8170445067,15154.5987036442,8491.6774326725,-8148.4997114783,14769.3329191393,-7617.6717698806,5041.4539923464
160374517977,28351,5,0,7620.6528556022,-2075.0060100036,16284.9047323145,14055.7583389579,15560.5982435353,9098.7846656532,22556.3425257048,27547.4952593852,-1584.3436356185,-1735.7462871863,15153.9781511062,8492.7238545993,-8148.2198544513,14774.0418178098,-7614.4838333130,5041.6608431924
160374517977,28351,5,0,7618.8642041692,-2077.0866861603,16293.6411386334,14056.0138605912,15561.3039699510,9098.8455041373,22557.2672706634,27549.0770599721,-1583.6135738091,-1735.6002748244,15154.8055544901,8493.9892950689,-8147.7331465784,14780.4055232482,-7612.5735049118,5041.9285325225
160374517977,28351,5,0,7609.9939531853,-2082.1849511291,16258.7198487516,14051.6943282190,15560.2697157210,9097.8720883915,22556.7562273968,27547.2640731455,-1584.1976232566,-1737.2064108051,15154.6595421283,8492.8211961739,-8148.7308977179,14782.5835409795,-7612.5613372150,5042.9019482683
160374517977,28351,5,0,7602.6811673947,-2084.3386334668,16229.0671715940,14048.0805222626,15559.4788154276,9094.8666672762,22553.7264708879,27544.4046643921,-1586.3756409879,-1737.9121372208,15151.6906241035,8490.1199674792,-8151.3591202317,14780.1134985245,-7611.5270829850,5039.7140117007
160374629109,28355,5,0,7592.8618360586,-2089.4125630420,16241.7094085931,14043.7001514064,15555.3904692950,9097.0081819171,22552.8017259294,27549.9287987498,-1587.7140876384,-1736.2816658465,15160.0985026081,8496.2646543748,-8152.3690390680,14786.7813963834,-7602.6081612138,5043.3156499603
160374629109,28355,5,0,7595.3805493010,-2087.7334208804,16229.6998918288,14042.9944249906,15556.2178726790,9098.6508209882,22552.0716641200,27548.3226627691,-1587.3612244305,-1736.6345290544,15159.6482978257,8494.4638352450,-8151.5781387745,14783.7516398745,-7606.6356688622,5042.0867125812
160374629109,28355,5,0,7611.3445675327,-2080.3354612120,16258.6711779643,14047.9953483849,15556.7532513392,9101.3155465924,22552.3028503596,27548.5173459183,-1587.1057027973,-1734.7607037437,15157.7258017277,8491.2028924964,-8151.4929648967,14784.2018446570,-7613.8632807750,5040.5292473878
160374629109,28355,5,0,7618.5478440519,-2077.8775864538,16295.4054546727,14050.9886018033,15558.1525364738,9102.3011300350,22552.9355705944,27551.2185746130,-1586.7771749830,-1733.7021141201,15156.0953303534,8490.8621969854,-8150.1058474589,14788.5335447259,-7616.7105218316,5040.4075704196
160374629109,28355,5,0,7614.9705411859,-2079.7392440677,16290.0029972833,14050.8425894414,15557.4589777549,9100.4029693307,22550.7940559536,27549.2109046372,-1588.0304477558,-1736.5493551766,15153.0169030572,8487.8081050828,-8152.8314115472,14785.5159559139,-7621.1517311720,5037.6941740281
160374629109,28355,5,0,7604.2994710722,-2086.4193096235,16250.2632994596,14045.1602750251,15555.0376060872,9096.2294493204,22547.6912932637,27543.9787950033,-1591.6929244995,-1739.1045715095,15148.7825445628,8483.1357095028,-8155.1797770341,14777.7894684313,-7622.0643084337,5033.2894677782
160374629109,28355,5,0,7601.6104100743,-2084.2899626795,16233.6178902058,14043.2134435335,15554.8550906348,9097.1785296726,22545.7809648625,27542.3483236291,-1590.2571362744,-1738.9828945412,15146.1664897459,8480.9333563779,-8154.1698581978,14779.5902875611,-7614.3256532543,5034.7130883065
160374629109,28355,5,0,7616.7835280125,-2076.8433322239,16258.0506254263,14047.6303174802,15558.7365859214,9100.1839507879,22547.1315792099,27543.6259317955,-1588.1399570272,-1733.6534433328,15144.7063661271,8480.8360148033,-8151.0305924174,14782.0116592288,-7612.1354678262,5036.0271995633
160374664243,28356,5,0,7634.0981605916,-2069.7860680665,16300.0778502527,14054.7970909089,15562.2408826064,9105.9149359915,22548.8593921587,27545.5362601967,-1585.7429207531,-1731.3172455428,15144.7428692176,8479.9112698447,-8148.9377485639,14782.4375286177,-7618.7790302915,5036.3192242871
160374664243,28356,5,0,7629.6204481607,-2072.7914891818,16301.9030047762,14055.5393204151,15564.4189003377,9107.0465317960,22550.1978388092,27546.8382037567,-1583.4310583567,-1730.1491466478,15146.1543220490,8481.4687350381,-8147.8304881530,14780.5393679133,-7623.8407921698,5038.1200434169
160374664243,28356,5,0,7620.2026508198,-2078.6319836568,16267.2250688308,14052.3392161507,15566.6334211594,9109.3340587987,22550.7453851663,27547.2397377519,-1581.6302392269,-1728.9932154496,15147.4927686996,8482.5151569648,-8146.9300785881,14776.0251523920,-7627.1139026152,5040.8699428989
160374664243,28356,5,0,7617.4892544283,-2082.3796342783,16243.6684077816,14048.1656961404,15564.4310680345,9107.7765936054,22549.5164477872,27544.8670368714,-1581.6545746206,-1729.7962834399,15147.2494147631,8481.4443996444,-8148.4388729942,14772.5573587974,-7630.8615532367,5040.6630920529
160374664243,28356,5,0,7621.1273957783,-2080.5909828453,16259.3525689864,14048.7497455879,15563.7983477997,9107.2655503388,22549.5894539681,27544.8792045682,-1581.8492577698,-1730.6601899143,15147.5414394868,8481.5174058254,-8149.6313072828,14772.5816941911,-7628.8538832609,5040.5049119942
160374664243,28356,5,0,7627.5032689135,-2080.3354612120,16292.7893998558,14048.6524040133,15565.0151174820,9107.0465317960,22550.8427267409,27547.8359548962,-1581.8735931634,-1729.4312525352,15150.3643451498,8486.2141367990,-8148.3415314196,14782.4131932240,-7621.0787249910,5045.4449969043
160374664243,28356,5,0,7624.2423261650,-2082.3796342783,16297.3157830739,14045.5983121108,15564.5162419122,9107.2168795515,22552.5948750834,27550.3181650481,-1579.3427122242,-1728.4700044862,15153.9173126221,8490.7770231076,-8147.0517555563,14786.7448932930,-7611.6000891660,5047.2093129436
160374664243,28356,5,0,7608.8258542903,-2088.0984517851,16264.0858030505,14043.3107851080,15565.9033593501,9106.4868177421,22554.1523402767,27553.5304370093,-1577.9434270896,-1727.4114148626,15158.0786649355,8496.0334681351,-8144.3626945585,14789.2149357480,-7602.7176704852,5051.8817085236
160374758008,28359,5,0,7661.4876461400,-2027.1626260958,16263.5260889966,14069.3618240060,15567.4608245434,9110.1614621827,22560.5403811087,27557.7161247164,-1579.7807493099,-1728.5673460608,15157.7623048181,8494.7558599687,-8140.4446961815,14790.7602332445,-7620.0688061547,5048.9249581957
160374758008,28359,5,0,7677.3786581908,-2011.6853157370,16299.7128193481,14077.6845286329,15572.8754496296,9113.4710757185,22564.4705471826,27561.2447567951,-1575.8384155392,-1725.8296142756,15160.3296888478,8497.1042254556,-8136.6970455600,14785.9539929995,-7624.1936553777,5051.4680068317
160374758008,28359,5,0,7680.6517686361,-2008.9840870423,16326.8589509600,14080.1059003006,15575.3941628720,9114.8338577627,22566.7215710948,27566.1483386147,-1572.4436281256,-1725.0022108917,15163.4081161440,8499.3552493678,-8134.3243446795,14777.9598161868,-7626.2134930503,5053.4391737170
160374758008,28359,5,0,7674.9086157357,-2012.4883837273,16307.6948284639,14075.7742002316,15577.3896651509,9115.5395841784,22567.9018376866,27564.7368857833,-1568.4769589613,-1722.9093670381,15166.1580156260,8500.5111805660,-8134.4825247382,14776.9498973505,-7624.2544938618,5057.4180105781
160374758008,28359,5,0,7666.2208802041,-2015.3964632680,16269.7072789827,14069.9702088471,15577.1219758208,9115.5152487848,22565.7968261363,27560.9892351618,-1568.5256297486,-1721.8386097177,15166.2188541101,8498.9415476758,-8136.1129961125,14779.1887535659,-7622.0521407369,5059.7298729744
160374758008,28359,5,0,7669.5791645273,-2011.6123095561,16263.5990951776,14070.1648919963,15578.0223853857,9117.3890740955,22565.2736151729,27560.6972104381,-1566.3841151078,-1719.2347225976,15168.0196732399,8498.1749827760,-8134.5433632224,14781.0990819671,-7617.8177822425,5061.8105491312
160374758008,28359,5,0,7684.2047361084,-2007.9985035996,16294.0670080222,14072.9999653560,15577.9128761143,9119.2628994062,22565.6508137744,27563.1550851963,-1566.6274690443,-1717.4825742551,15170.8060758123,8500.9370499548,-8132.9250595449,14788.5092093323,-7611.2958967454,5063.2220019626
160374758008,28359,5,0,7694.2430859874,-2006.7695662205,16325.8855352142,14076.7962867648,15577.9615469016,9118.8005269270,22566.5147202488,27563.8729793088,-1566.5909659538,-1719.4172380499,15172.8502488786,8503.8938002828,-8132.8155502735,14793.1816049123,-7603.4720676882,5065.0714918797
160374836822,28360,5,0,7679.1551419269,-2016.1995312583,16305.9061770309,14071.5885125246,15570.7095995951,9110.8063501143,22563.8986654319,27564.3596871818,-1569.7667348246,-1723.2622302460,15173.2396151769,8504.5143528207,-8135.4681081809,14792.7192324330,-7598.5684858686,5064.1345792243
160374836822,28360,5,0,7667.7783453975,-2023.2811308093,16265.9961314517,14065.5533349004,15568.7140973162,9108.7378416544,22562.8644112019,27560.0279871128,-1573.2710315096,-1727.2775701976,15171.6334791963,8503.2489123511,-8139.7998082499,14793.2546110932,-7600.3814726952,5062.8448033611
160374836822,28360,5,0,7666.9144389230,-2022.9769383887,16254.1326270493,14065.0544593306,15567.9597001131,9107.3507242166,22561.4529583705,27559.5534469367,-1573.9037517444,-1727.9589612196,15170.5748895727,8502.2876643021,-8142.5375400350,14797.8053297050,-7602.5351550329,5062.2972570041
160374836822,28360,5,0,7672.3533994029,-2018.1098596595,16281.7411311406,14067.9138680840,15568.7140973162,9107.6670843340,22559.5791330597,27559.9428132350,-1574.9866767616,-1729.1148924178,15169.4311260713,8501.3750870404,-8144.6303838886,14793.6196419979,-7610.2008040313,5057.7222029987
160374836822,28360,5,0,7678.2182292716,-2019.9350141830,16313.2067951247,14068.6317621966,15565.5139930517,9106.5963270135,22559.3966176074,27560.3443472302,-1578.5883150212,-1731.3415809364,15166.3161956846,8499.0875600377,-8146.9544139818,14784.5668755617,-7617.5622606092,5053.5973537757
160374836822,28360,5,0,7664.2132102284,-2027.8075140274,16299.8223286195,14062.7669323279,15562.3503918778,9103.5422351110,22556.4398672794,27558.8112174305,-1581.8857608602,-1735.6246102181,15165.4644569070,8498.9415476758,-8149.3879533463,14778.8480580549,-7620.5555140276,5051.5775161031
160374836822,28360,5,0,7650.5123836057,-2033.5384992310,16262.8690333682,14057.9363566892,15561.8271809144,9103.2258749936,22555.0405821448,27557.8986401688,-1581.4355560778,-1735.7584548831,15165.9755001736,8500.5720190501,-8148.1103451799,14780.4785294292,-7615.2260628192,5054.2787447978
160374836822,28360,5,0,7654.7467421001,-2027.1991291863,16250.5066533961,14062.3045598487,15566.9497812768,9107.0343640992,22555.2109299003,27556.2681687945,-1577.7244085468,-1729.6137679876,15169.4797968586,8501.9956395784,-8144.5938807981,14786.3555269946,-7605.3823960894,5057.4423459717
160374854112,28361,5,0,7670.1510462779,-2022.2590442761,16278.5045237857,14068.1085512332,15570.2837302063,9111.4755734395,22560.8810766198,27560.9770674650,-1575.0353475489,-1724.7831923489,15169.6501446141,8503.5166016812,-8139.4956158293,14791.6363074158,-7599.5905724017,5058.6834510477
160374854112,28361,5,0,7677.6463475209,-2019.5213124910,16314.6669187434,14070.5664259914,15572.4374125440,9114.2498083152,22562.8887465956,27563.7269669470,-1574.3296211332,-1724.2599813855,15168.6645611715,8502.9203845369,-8138.4491939025,14798.0973544288,-7600.5031496634,5057.6491968177
160374854112,28361,5,0,7672.2073870410,-2025.3374715723,16312.0143608360,14069.4591655805,15571.9385369742,9113.7022619581,22562.9860881702,27563.3254329518,-1575.4977200282,-1725.6349311265,15167.7033131225,8501.7766210356,-8138.7047155358,14800.9810985758,-7605.3093899085,5055.7632038102
160374854112,28361,5,0,7661.9378509225,-2032.1270463995,16276.5698599908,14065.8331919273,15568.1422155655,9110.2344683636,22562.2803617544,27561.1352475237,-1579.5860661607,-1731.1712331809,15163.7609793518,8498.1019765950,-8141.8804844066,14792.6948970394,-7612.0867970389,5051.6991930713
160374854112,28361,5,0,7656.4745550490,-2034.9621197593,16253.9136085065,14062.4627399074,15564.8569374233,9105.3552219376,22559.8103192994,27558.8477205210,-1584.4531448899,-1735.3934239785,15159.4657823733,8494.9748785115,-8144.3140237712,14783.6908013904,-7612.7803557578,5046.9172882199
160374854112,28361,5,0,7667.3889790991,-2032.7232635439,16272.4693461615,14064.6164222450,15563.2264660490,9103.9681044998,22558.2893571965,27558.4948573131,-1585.7064176626,-1738.2650004287,15156.8375598596,8492.7238545993,-8146.7353954389,14777.9963192773,-7612.0624616452,5045.0434629091
160374854112,28361,5,0,7678.0478815160,-2030.4844073284,16308.3518840923,14063.4726587437,15562.1070379413,9104.4548123727,22557.1699290888,27558.7625466432,-1585.8645977213,-1738.0094787954,15154.5865359473,8491.4097433424,-8148.4023699037,14780.2716785832,-7613.4617467799,5044.2403949188
160374854112,28361,5,0,7668.8977735052,-2035.5218338131,16309.0211074176,14059.0557847969,15562.2287149095,9103.4935643237,22555.5759608050,27557.8012985942,-1586.0957839610,-1736.7805414163,15154.9515668520,8491.2150601933,-8150.1545182462,14783.2770996984,-7616.9295403744,5045.4693322980
160374883194,28363,5,0,7662.0473601939,-2036.3370695003,16300.6497320034,14061.4649887679,15570.3689040841,9110.4778223001,22564.1906901556,27562.3155141155,-1573.0520129668,-1728.5795137576,15172.8015780913,8500.5476836564,-8138.9724048659,14789.6529728337,-7611.2837290486,5062.5041078501
160374883194,28363,5,0,7657.1924491615,-2041.7273591928,16311.1139512711,14057.5834934814,15569.0304574336,9107.6670843340,22562.0005047275,27562.1816694505,-1575.1691922140,-1731.1955685745,15171.8159946486,8500.7180314120,-8141.6127950765,14790.2978607653,-7612.1111324325,5061.1656611995
160374883194,28363,5,0,7648.3100304808,-2048.4560955359,16281.1814170867,14055.4176434469,15568.6654265289,9106.6328301040,22562.9495850797,27561.4516076411,-1575.2421983949,-1731.1834008777,15173.1179382087,8502.9203845369,-8142.6957200937,14794.1793560518,-7607.6820907890,5062.4554370628
160374883194,28363,5,0,7638.0769974527,-2050.0135607293,16249.7157531026,14056.5005684641,15568.5072464702,9106.4503146517,22562.5723864782,27562.5832034456,-1573.7090685952,-1729.9666311954,15173.1057705119,8503.8451294955,-8142.1968445240,14797.4281311035,-7602.6933350916,5061.1656611995
160374883194,28363,5,0,7642.7372253359,-2046.4605932570,16255.5927506681,14058.1553752320,15567.1201290324,9107.3750596102,22561.0027535880,27560.8797258904,-1576.3737941994,-1730.0883081637,15169.5771384332,8501.9104657006,-8144.5573777076,14797.2699510448,-7600.1259510619,5059.8880530331
160374883194,28363,5,0,7658.7985851421,-2041.9707131293,16291.5482947799,14060.6010822934,15564.1877140980,9106.0122775660,22558.7273942821,27559.5169438462,-1580.2431217891,-1732.6800275869,15164.9534136405,8497.8099518713,-8147.8183204562,14792.5245492839,-7601.9511055854,5053.5730183820
160374883194,28363,5,0,7660.7089135433,-2042.9076257847,16310.0431939507,14056.5249038578,15559.2719645816,9101.5467328320,22552.2785149660,27555.0513991122,-1586.9475227386,-1737.9851434017,15157.4216093071,8492.4683329660,-8152.4420452489,14787.7426444325,-7609.0692082268,5046.1872264105
160374883194,28363,5,0,7650.9504206913,-2046.2294070173,16285.4766140652,14053.8601782535,15559.2597968847,9100.7923356290,22547.9954856843,27549.6246063292,-1589.6244160396,-1740.6133659155,15155.1219146075,8490.1808059633,-8155.3622924864,14786.7327255961,-7613.5712560513,5043.6198423809
160374923441,28364,5,0,7647.3244470381,-2047.8477106948,16252.1857955576,14049.1026087958,15555.6459909283,9096.9838465234,22546.2920081291,27548.8337060357,-1590.0746208221,-1741.3920985122,15153.3941016587,8490.1686382665,-8153.7318211121,14783.3866089698,-7613.0480450879,5043.6441777745
