timestamp,sequence,battery,flags,EEG-ch1,EEG-ch2,EEG-ch3,EEG-ch4,EEG-ch5,EEG-ch6,EEG-ch7,EEG-ch8,EEG-ch9,EEG-ch10,EEG-ch11,EEG-ch12,EEG-ch13,EEG-ch14,EEG-ch15,EEG-ch16
158241766452,6857,-2,0,-3685.4736907009,-10797.6141606787,23705.3503043921,-11581.1773329857,9959.3936942431,1.9103284012,13353.7795738487,20279.2675745626,-9526.4792089796,-11363.1322059186,7819.9110587747,1251.5449598142,-15451.4174999430,5919.6331751486,-18747.8534201240,-6199.4171958953
158241766452,6857,-2,0,-3694.9036557387,-10801.0576188796,23692.5742227280,-11587.1516721258,9956.0110745263,-2.4822101519,13352.5871395601,20277.9291279121,-9530.8960829264,-11369.2160543301,7817.4288486228,1248.6490479703,-15452.9993005300,5912.2838862675,-18753.0733620610,-6201.0841703600
158241766452,6857,-2,0,-3698.6513063601,-10800.7169233686,23683.4484501108,-11589.5730437936,9954.4049385457,-3.2001042644,13351.5650530270,20275.3252407920,-9532.4900512102,-11371.0898796408,7814.7519553218,1246.0329931534,-15453.5590145838,5901.4546360951,-18758.0621177584,-6202.7876479153
158241766452,6857,-2,0,-3688.0410747305,-10796.2270432409,23689.8608263365,-11583.1850029615,9957.1061672404,0.1216769682,13353.2320274917,20277.2112337996,-9530.8839152295,-11368.8023526381,7815.2751662852,1246.6413779945,-15452.5004249602,5900.0431832636,-18761.4812405657,-6203.9435791134
158241766452,6857,-2,0,-3676.8467936534,-10795.1684536173,23704.2917147685,-11578.9628121640,9959.2111787907,2.0806761567,13355.9697592769,20280.4600088513,-9529.3386177330,-11365.9307761879,7816.3459236056,1248.9167373004,-15453.1088098014,5906.1148639783,-18762.3086439496,-6203.4812066342
158241766452,6857,-2,0,-3681.4340153557,-10799.2081289625,23705.5936583285,-11583.1363321742,9957.7145520815,0.4137016920,13356.5416410275,20280.2774933989,-9528.7667359823,-11366.5634964227,7817.0638177181,1250.1335069827,-15452.9871328332,5909.7651730252,-18760.5686633040,-6201.5100397488
158241766452,6857,-2,0,-3691.5453714156,-10800.7655941559,23695.2876191195,-11586.7379704338,9955.1593357487,-0.5475463570,13356.1036039419,20280.8615428464,-9529.1439345838,-11365.8942730974,7817.4045132292,1251.2042643031,-15452.6099342317,5909.5583221792,-18756.2004601445,-6199.3685251080
158241766452,6857,-2,0,-3693.1393396994,-10798.1860424294,23686.0766726245,-11587.5045353337,9955.5730374407,-0.6448879316,13355.1545235897,20279.3892515309,-9529.8861640900,-11364.4219817818,7817.0273146277,1250.3403578287,-15452.9506297427,5911.1644581598,-18754.8620134940,-6198.3221031812
158241833819,6859,-2,0,-3704.3579561701,-10792.7349142527,23699.6436545821,-11583.5013630789,9952.9326472301,-1.9955022790,13354.1446047534,20280.7885366655,-9533.5121377433,-11370.7978549171,7814.1557381775,1252.9929157361,-15456.2845786722,5909.4853159982,-18756.8210126825,-6201.2058473283
158241833819,6859,-2,0,-3714.2867967776,-10793.5136468494,23688.5588827764,-11589.8042300332,9950.9371449511,-5.2686127243,13350.1901032860,20274.3153219557,-9535.8361678365,-11372.6473448341,7810.8217892480,1249.7684760780,-15457.5135160513,5916.5547478524,-18756.1882924477,-6201.8385675631
158241833819,6859,-2,0,-3705.5503904588,-10790.2040333136,23689.2889445858,-11583.1728352647,9954.9524849027,-1.4236205283,13349.6547246258,20268.3774859061,-9533.2566161100,-11368.2061354938,7809.1304793896,1248.3205201561,-15455.7613677088,5919.1464672757,-18755.2513797923,-6202.5199585852
158241833819,6859,-2,0,-3692.2876009217,-10787.6731523744,23702.1258647340,-11575.6653663249,9957.0331610594,4.3438677658,13351.2365252127,20262.6099976120,-9532.2710326673,-11365.7604284324,7808.5707653357,1248.9045696036,-15454.5689334201,5916.3965677937,-18756.2369632350,-6203.0066664581
158241833819,6859,-2,0,-3691.8738992298,-10790.5325611278,23707.2728004901,-11576.3224219534,9954.3927708488,4.4898801277,13350.7376496430,20254.1291129264,-9533.1592745354,-11365.7725961292,7807.5486788026,1247.8824830705,-15455.6761938310,5919.2924796375,-18755.9692739049,-6206.0972614511
158241833819,6859,-2,0,-3705.1123533731,-10794.1341993874,23699.1447790124,-11582.1994195189,9949.6352013911,-0.2676893301,13346.9169928406,20244.8086571601,-9536.1525279539,-11367.9871169510,7804.1417236922,1244.7067141997,-15458.8519627018,5919.3898212121,-18755.8110938462,-6206.3527830844
158241833819,6859,-2,0,-3709.9307613150,-10796.4095586933,23687.8166532702,-11585.2900145119,9949.8055491466,-2.8959118439,13342.1837587765,20238.3719455407,-9538.0141855678,-11371.1872212154,7803.0101278877,1242.3948518033,-15460.2390801396,5912.2108800866,-18754.3388025306,-6206.2919446003
158241833819,6859,-2,0,-3704.1754407178,-10791.7249954164,23688.9725844684,-11580.9704821397,9951.6307036700,-1.9103284012,13342.5366219843,20238.8464857168,-9535.5563108095,-11368.4251540366,7804.8352824111,1244.0253231776,-15459.1683228192,5911.2617997344,-18749.6542392538,-6203.3108588786
158241866290,6860,-2,0,-3694.3682770785,-10785.9331717287,23703.7806715019,-11574.3634227649,9958.4446138909,4.6602278832,13347.5375453786,20242.5819686415,-9529.6671455472,-11361.5625730284,7809.8362058053,1247.5661229531,-15454.5445980265,5919.6331751486,-18745.0061790674,-6197.4946997973
158241866290,6860,-2,0,-3688.9779873859,-10783.3049492150,23713.0159533905,-11572.4044235764,9959.8317313287,6.9599225827,13351.2608606064,20246.0984330233,-9526.3696997082,-11359.2020398448,7813.1823224316,1250.0361654081,-15453.2791575569,5924.2568999413,-18746.1377748719,-6196.4726132642
158241866290,6860,-2,0,-3701.0970134216,-10789.4374684137,23704.4012240399,-11580.3377619049,9956.1814222818,2.9445826312,13350.2144386796,20243.4458751159,-9528.8884129506,-11363.4363983392,7813.3405024903,1249.3669420829,-15454.2769086964,5920.8134417404,-18748.4496372683,-6196.8254764720
158241866290,6860,-2,0,-3710.7216616085,-10792.4307218322,23690.5665527522,-11585.7158839007,9955.3296835042,0.0851738778,13349.5208799607,20242.2047700400,-9529.3386177330,-11365.2372174690,7814.4842659917,1249.3426066892,-15453.6076853711,5917.8080206251,-18748.5956496302,-6196.9228180466
158241866290,6860,-2,0,-3704.5769747129,-10791.3721322086,23689.2402737985,-11579.5590293083,9956.8871486976,2.0685084599,13350.9566681858,20244.0664276539,-9529.2169407648,-11364.3003048136,7815.8713834295,1249.1479235400,-15451.7703631509,5916.0437045858,-18747.4518861288,-6197.9935753670
158241866290,6860,-2,0,-3693.5773767850,-10790.4473872500,23700.2277040296,-11573.0493115080,9959.5518743018,4.0640107389,13352.1004316872,20247.6437305198,-9528.2435250190,-11363.1322059186,7815.2021601042,1249.5007867479,-15451.0768044320,5916.3357293096,-18747.7439108526,-6199.6727175286
158241866290,6860,-2,0,-3692.3971101932,-10791.5668153577,23707.2971358837,-11572.0758957622,9957.7145520815,2.5187132423,13352.3072825332,20249.4445496496,-9529.0465930093,-11364.0691185740,7813.5351856395,1249.6102960193,-15453.6563561584,5920.2415599897,-18745.2860360943,-6200.3297731570
158241866290,6860,-2,0,-3699.7950698615,-10791.2261198467,23703.1601189639,-11578.9871475576,9952.8839764428,-0.0121676968,13349.8615754718,20247.3760411897,-9532.0398464277,-11365.8942730974,7812.4644283191,1249.2087620242,-15456.3332494595,5918.5989209186,-18742.0859318299,-6199.1616742620
158241927534,6861,-2,0,-3706.0370983317,-10791.4086352990,23691.9049994027,-11582.8443074505,9950.0975738704,-2.4213716678,13345.3108568600,20244.1150984412,-9532.9280882958,-11368.4859925207,7810.4080875560,1246.2885147867,-15457.8542115623,5917.3699835395,-18742.3414534632,-6198.4194447558
158241927534,6861,-2,0,-3704.8811671335,-10788.7439096948,23688.5345473828,-11580.6541220223,9951.2778404622,-1.6426390711,13345.4203661314,20244.4071231649,-9533.2809515036,-11367.6464214399,7810.5906030083,1246.8603965373,-15456.5401003055,5917.7228467474,-18744.1787756835,-6198.6627986923
158241927534,6861,-2,0,-3693.4556998168,-10785.6411470050,23699.1447790124,-11570.6036044466,9954.6726278758,2.7133963915,13350.2752771637,20249.8947544321,-9531.1029337723,-11364.7748449897,7812.6712791651,1249.3061035987,-15455.1408151708,5918.9396164297,-18746.9651782559,-6199.2225127461
158241927534,6861,-2,0,-3687.7977207941,-10784.6920666528,23712.3588977621,-11566.9289600061,9955.7190498026,2.9932534184,13354.6313126263,20254.4698084375,-9530.3850396598,-11364.4341494787,7816.3337559088,1252.4940401664,-15453.1818159823,5922.0545468163,-18747.3058737669,-6197.4825321005
158241927534,6861,-2,0,-3694.8671526482,-10786.5780596603,23709.5238244023,-11570.3480828133,9954.9524849027,0.1825154523,13355.5317221912,20253.2530387552,-9531.6748155230,-11366.5756641195,7817.4653517133,1253.5282943963,-15453.1574805887,5922.5899254765,-18744.9696759769,-6196.4117747800
158241927534,6861,-2,0,-3702.6058078276,-10788.4032141838,23696.0785194130,-11577.5270239388,9951.4481882177,-4.6967309737,13350.5673018875,20248.0330968181,-9535.2399506921,-11371.6130906042,7812.9998069793,1248.9897434814,-15455.3963368041,5916.3600647032,-18747.4032153415,-6197.8962337924
158241927534,6861,-2,0,-3702.8613294609,-10789.2427852645,23688.4737088986,-11577.9285579340,9951.1561634939,-4.4655447340,13347.1360113834,20244.2002723189,-9534.6559012446,-11372.0024569025,7810.3594167687,1245.4124406154,-15455.4085045009,5912.8436003214,-18746.9530105591,-6200.2567669761
158241927534,6861,-2,0,-3694.3196062912,-10785.7141531859,23697.0154320683,-11571.3580016496,9955.6338759248,-0.6205525380,13349.5817184448,20245.5143835758,-9532.4048773324,-11368.0479554351,7809.6171872625,1246.4953656326,-15453.3521637379,5915.8246860430,-18745.5658931213,-6199.0399972938
158241988807,6862,-2,0,-3686.2037525103,-10783.9376694497,23709.5481597960,-11567.0628046711,9954.1372492156,-0.9125772617,13348.9733336037,20249.2863695909,-9532.0885172150,-11367.5490798653,7809.8848765926,1247.9189861609,-15456.1142309167,5918.2217223171,-18745.8457501482,-6198.8088110542
158241988807,6862,-2,0,-3693.6868860564,-10786.8944197777,23706.2020431697,-11573.8402118015,9948.5279409802,-5.0739295752,13347.5740484690,20249.6148974051,-9537.6978254504,-11372.4769970786,7808.2787406120,1247.6269614372,-15459.6428629953,5916.0558722826,-18744.8723344024,-6200.0985869174
158241988807,6862,-2,0,-3707.8379174615,-10790.3865487659,23690.1771864539,-11582.8929782378,9939.9375470232,-12.3502122753,13342.8043113144,20245.8429113900,-9542.3458856367,-11378.6825224583,7804.4702515064,1245.3029313440,-15463.7190414310,5913.1842958324,-18744.7141543437,-6203.2013496072
158241988807,6862,-2,0,-3708.2759545471,-10791.0679397880,23681.9639910984,-11584.0124063455,9939.5116776344,-13.1046094783,13342.3784419256,20244.4314585586,-9544.1102016761,-11379.7411120819,7803.9957113303,1244.0983293585,-15465.0574880815,5911.5781598518,-18746.6244827449,-6205.1968518862
158241988807,6862,-2,0,-3696.1447608146,-10789.8024993184,23690.0068386983,-11576.5414404962,9942.9916389258,-8.7607417125,13344.7146397156,20249.2011957131,-9540.9952712894,-11376.1759769128,7805.6991888855,1245.1325835885,-15463.8650537929,5915.4109843510,-18747.3910476447,-6204.8074855879
158241988807,6862,-2,0,-3688.8319750240,-10788.2328664282,23704.2430439812,-11570.3480828133,9947.2503328138,-4.1370169198,13351.2365252127,20254.8226716453,-9537.5883161790,-11372.0511276898,7808.7897838785,1249.5981283225,-15460.5554402570,5918.8666102487,-18746.2594518402,-6203.8462375389
158241988807,6862,-2,0,-3691.0829989363,-10787.4054630443,23708.4652347787,-11568.6324375613,9949.8907230244,-0.2920247238,13353.3658721568,20257.0980309512,-9535.0939383303,-11370.2503085600,7811.1381493654,1250.7053887334,-15457.1484851466,5922.8941178971,-18745.3468745785,-6201.9359091377
158241988807,6862,-2,0,-3694.9279911323,-10786.3590411175,23704.5107333113,-11571.4553432242,9954.2224230933,0.9247449585,13352.0395932031,20255.6257396357,-9532.0520141245,-11367.6707568336,7812.7686207397,1250.8027303080,-15453.2183190728,5927.9072089882,-18743.3148692090,-6197.0688304085
158241997618,6863,-2,0,-3694.7576433768,-10784.0471787211,23699.9965177900,-11568.7297791359,9957.7997259593,4.1005138293,13352.8791642838,20253.0826909997,-9527.0024199430,-11362.6211626520,7813.7907072728,1250.0361654081,-15448.8744513070,5931.9955551207,-18740.7109820889,-6194.4284401979
158241997618,6863,-2,0,-3684.6584550138,-10778.3648643048,23704.8270934287,-11560.5530868708,9959.3815265463,8.5660585634,13354.0959339661,20254.3602991661,-9522.9627445978,-11356.2817926073,7815.9565573073,1252.2020154426,-15445.7595209203,5933.9423866124,-18736.1724311740,-6191.1674974493
158241997618,6863,-2,0,-3676.8224582598,-10774.9335738008,23719.1971433766,-11555.3939834179,9966.9741693638,14.4795592193,13359.8390868666,20260.8213461791,-9520.4075282650,-11350.7454905529,7819.5460278700,1255.6089705530,-15445.9663717663,5937.6170310529,-18731.2201785670,-6188.5514426324
158241997618,6863,-2,0,-3684.5246103487,-10777.0264176543,23721.3994965015,-11560.3705714185,9965.2463564149,12.7030754832,13359.8877576539,20261.7460911376,-9519.9208203921,-11351.7067386019,7822.7461321345,1259.2592795999,-15445.8811978886,5940.5859490777,-18726.8276400139,-6185.3878414585
158241997618,6863,-2,0,-3695.8649037877,-10784.0836818116,23708.7572595025,-11569.8248718499,9962.2409352996,8.4200462015,13357.7705784067,20259.6410795872,-9522.6098813899,-11355.6369046757,7823.8655602422,1258.3832054287,-15446.4895827297,5942.6666252344,-18727.3630186741,-6184.0737302016
158241997618,6863,-2,0,-3697.2520212255,-10788.6465681202,23698.2687048411,-11573.4265101095,9958.3594400131,3.7476506215,13355.3127036484,20255.6622427261,-9525.1650977227,-11360.6134926763,7823.6343740025,1255.4994612816,-15449.8113639624,5936.4245967642,-18732.4977867334,-6187.9308900944
158241997618,6863,-2,0,-3695.1226742815,-10790.2040333136,23696.7720781319,-11571.5526847988,9955.5852051375,0.8760741713,13353.2198597949,20255.9177643594,-9528.9249160410,-11365.2980559531,7820.2517542858,1253.7351452423,-15451.0403013415,5926.5200915504,-18738.7519829004,-6191.5446960509
158241997618,6863,-2,0,-3689.7932230730,-10789.5226422915,23705.6301614190,-11566.5152583141,9956.8506456071,2.1415146408,13355.9210884896,20260.9308554505,-9527.9393325984,-11364.1542924517,7821.3711823935,1254.4652070517,-15450.7604443146,5924.4637507873,-18738.3626166021,-6192.4207702221
158242006474,6864,-2,0,-3690.1947570682,-10788.0138478854,23710.7162586910,-11565.6756872333,9956.6681301547,-1.0707573204,13355.6047283722,20259.9209366142,-9527.7081463587,-11367.2327197479,7822.3932689266,1255.6941444308,-15450.9916305542,5922.3587392369,-18739.6523924653,-6192.0192362270
158242006474,6864,-2,0,-3703.1776895783,-10790.8975920325,23701.8338400102,-11570.9686353513,9954.5022801203,-2.4457070614,13355.5073867976,20259.8479304332,-9529.7036486377,-11369.3864020856,7820.0814065302,1253.1024250075,-15450.6265996495,5918.9274487328,-18743.3878753900,-6193.0169873664
158242006474,6864,-2,0,-3706.9375078966,-10791.5303122673,23694.1073525277,-11573.8280441047,9955.6703790153,-1.9833345821,13354.4731325676,20256.4774784133,-9530.4093750534,-11368.4859925207,7819.2540031463,1249.3669420829,-15447.5968431406,5916.1167107667,-18747.3545445542,-6193.0656581537
158242006474,6864,-2,0,-3695.5485436703,-10784.0106756307,23697.6481523031,-11565.4688363873,9957.6050428101,-0.7909002935,13355.0085112279,20256.6478261688,-9531.2124430438,-11368.1331293128,7815.5428556153,1248.4665325180,-15449.5923454196,5914.6322517543,-18751.0413566916,-6196.2900978118
158242006474,6864,-2,0,-3686.0577401484,-10775.6636356101,23706.6035771648,-11557.7301812079,9955.2931804137,-3.4191228072,13354.2662817217,20257.1953725258,-9534.3882119145,-11370.6640102520,7811.9168819620,1246.6900487818,-15451.7703631509,5911.8215137882,-18756.0666154795,-6202.5686293724
158242006474,6864,-2,0,-3686.4106033563,-10772.0133265633,23713.4418227793,-11556.2335544987,9952.6649579000,-5.5241343576,13353.1103505235,20258.7771731128,-9537.1624467902,-11373.9127853037,7811.1016462749,1246.2155086057,-15453.7536977330,5912.7219233531,-18755.4217275479,-6203.0918403358
158242006474,6864,-2,0,-3686.9459820165,-10772.5000344362,23708.9762780453,-11561.5386703135,9950.6329525306,-5.8648298687,13350.0197555305,20256.6964969561,-9537.7343285408,-11373.6815990641,7810.9069631257,1246.2033409089,-15455.4815106819,5915.9220276176,-18752.3676356453,-6201.4126981743
158242006474,6864,-2,0,-3686.6052865054,-10773.8871518740,23701.9190138880,-11566.4787552236,9951.3630143399,-1.4114528315,13349.3261968115,20255.4918949706,-9534.5098888828,-11371.4305751519,7812.9146331015,1246.9577381119,-15452.7802819872,5921.3001496133,-18747.1720291019,-6197.1783396799
158242018912,6865,-2,0,-3679.8765501623,-10773.5707917566,23705.1434535461,-11562.0132104896,9956.2787638564,2.7742348756,13354.1446047534,20259.7140857682,-9529.3386177330,-11365.0547020166,7815.7740418549,1250.4376994033,-15447.8280293802,5923.6971858874,-18742.9376706075,-6193.5767014203
158242018912,6865,-2,0,-3667.7331887331,-10770.5532029445,23717.5058335182,-11552.9361086597,9960.5252900476,7.5683074239,13359.5105590523,20264.1309597149,-9524.3011912483,-11359.8347600796,7819.8258848970,1255.2439396483,-15445.1511360792,5925.8995390124,-18738.0340887879,-6190.7659634542
158242018912,6865,-2,0,-3672.6002674622,-10773.2422639424,23722.2634029760,-11551.1717926204,9961.0485010110,6.8625810081,13362.5159801676,20267.4405732507,-9524.0456696150,-11359.5792384463,7822.5271135917,1257.4827958638,-15443.8856956096,5931.0708101621,-18734.5297921029,-6187.3833437374
158242018912,6865,-2,0,-3687.7612177036,-10776.6492190528,23714.2448907696,-11558.5819199855,9957.8848998370,2.4213716678,13359.5592298396,20264.9340277052,-9525.7856502607,-11363.1322059186,7821.2860085157,1257.1664357464,-15445.5039992871,5933.1514863189,-18735.8439033597,-6188.1742440309
158242018912,6865,-2,0,-3693.9180722960,-10778.5473797572,23700.6170703279,-11562.6094276339,9956.1692545850,-1.1315958045,13355.7385730372,20260.3468060030,-9529.4116239140,-11366.5756641195,7817.9763949799,1253.6378036677,-15448.7406066420,5927.9315443818,-18740.6623113016,-6190.8146342415
158242018912,6865,-2,0,-3686.8973112292,-10777.3671131654,23700.2642071201,-11561.5873411008,9955.8407267708,-1.2776081664,13352.7696550124,20257.6090742178,-9532.1493556991,-11369.3255636015,7814.2895828425,1250.5228732810,-15450.3710780162,5919.2803119407,-18742.1711057077,-6196.4117747800
158242018912,6865,-2,0,-3678.9153021133,-10777.5861317082,23708.3800609010,-11557.8883612666,9954.6117893917,-0.5110432666,13350.4212895256,20256.8181739243,-9533.5608085306,-11368.9483650000,7809.6050195657,1246.7508872659,-15455.2746598359,5919.1586349725,-18741.9642548617,-6199.9039037682
158242018912,6865,-2,0,-3674.5227635603,-10779.0584230237,23716.9096163739,-11559.2511433108,9950.8398033766,-1.8008191298,13348.2311040975,20256.5383168974,-9536.6392358268,-11371.2967304868,7806.6117661472,1245.8504777010,-15459.4116767557,5922.0667145132,-18739.7497340399,-6201.3518596902
158242141323,6869,-2,0,-3662.5254144928,-10773.4126116979,23727.1913201892,-11547.3633035148,9963.5915496470,10.0870206662,13359.1576958445,20265.2747232163,-9521.1132546807,-11354.6391535362,7819.1079907844,1253.7959837264,-15446.1123841282,5935.6093610771,-18732.4369482493,-6185.9597232091
158242141323,6869,-2,0,-3666.8936176523,-10774.2156796882,23732.0949020089,-11547.5336512703,9962.7398108694,10.3790453900,13360.8490057029,20266.6131698668,-9522.5733782995,-11355.3692153456,7819.9232264715,1255.5968028562,-15445.3944900156,5942.2407558456,-18734.3959474378,-6185.4608476394
158242141323,6869,-2,0,-3681.5070215366,-10779.4964601094,23719.9637082764,-11553.5931642881,9959.7952282382,8.1401891745,13359.4983913555,20265.2017170353,-9523.8996572532,-11357.5228976832,7821.0548222761,1255.5602997657,-15446.7451043630,5944.8446429657,-18734.8948230075,-6186.1787417519
158242141323,6869,-2,0,-3685.4371876104,-10780.3238634933,23709.5603274928,-11557.8031873889,9958.5784585559,5.1956065434,13355.4100452230,20261.6000787757,-9528.1583511412,-11361.8911008427,7819.7285433224,1251.7518106602,-15448.4120788277,5934.6237776344,-18738.5329643576,-6189.5491937719
158242141323,6869,-2,0,-3680.3024195512,-10776.8925729893,23712.7604317572,-11555.9536974718,9958.9921602479,4.0396753452,13356.0792685483,20262.3179728883,-9527.5012955128,-11362.7793427107,7820.6897913714,1252.5427109536,-15448.3512403436,5928.8441216435,-18737.3161946753,-6190.5712803050
158242141323,6869,-2,0,-3673.0261368510,-10773.7533072089,23725.6216872991,-11549.7968428794,9959.0286633384,5.3902896926,13356.8093303577,20266.1142942970,-9525.7491471702,-11359.6035738400,7823.6343740025,1255.5116289784,-15446.4287442456,5928.5764323134,-18733.3860286015,-6188.6366165102
158242141323,6869,-2,0,-3672.1743980734,-10775.9678280307,23729.6613626443,-11551.2204634076,9961.1458425856,6.0108422305,13358.3302924605,20267.5987533094,-9524.2768558547,-11359.2750460257,7825.3865223450,1257.3246158051,-15446.7451043630,5928.8927924308,-18726.4139383220,-6185.8623816345
158242141323,6869,-2,0,-3682.8333004903,-10779.1070938110,23720.9736271127,-11560.4800806899,9956.1205837977,2.4457070614,13353.8282446360,20264.0579535340,-9527.6473078746,-11362.3291379283,7823.8290571517,1254.4043685676,-15450.8212827987,5927.9558797755,-18726.5842860775,-6185.8988847250
158242171365,6870,-2,0,-3690.0000739190,-10782.5018812246,23707.8568499376,-11565.0673023922,9952.4946101445,-0.2190185428,13348.5352965181,20257.7672542765,-9530.9447537136,-11364.5436587501,7820.5924497968,1250.3403578287,-15454.7757842661,5926.8972901519,-18731.8285634082,-6188.7826288721
158242171365,6870,-2,0,-3681.7503754731,-10783.1954399435,23707.3093035806,-11560.0177082106,9953.5653674649,1.7643160393,13347.3793653199,20256.4774784133,-9529.9104994837,-11363.0591997377,7819.2540031463,1247.0185765960,-15455.0799766867,5926.9337932423,-18734.3351089537,-6189.1841628672
158242171365,6870,-2,0,-3669.1324738677,-10777.9876657033,23724.3440791327,-11552.6805870264,9958.9556571575,6.8747487050,13350.7498173398,20259.2760486825,-9527.7446494492,-11359.2507106321,7820.8479714301,1246.7630549628,-15453.6076853711,5930.7544500447,-18736.9146606802,-6190.4374356400
158242171365,6870,-2,0,-3668.7187721757,-10777.1845977130,23735.3680124543,-11553.0212825374,9959.6370481795,8.4808846856,13353.2928659758,20260.8578492695,-9525.8586564417,-11356.9875190230,7820.8966422174,1246.9090673246,-15451.6730215763,5932.2875798444,-18734.9069907044,-6188.3932625737
158242171365,6870,-2,0,-3679.4385130767,-10779.0340876301,23729.0651455000,-11559.7743542742,9957.3373534800,5.8283267782,13351.1148482445,20258.5824899636,-9528.2921958062,-11360.4796480112,7819.4365185986,1246.5805395104,-15452.6829404126,5930.9856362844,-18732.3639420684,-6188.3689271801
158242171365,6870,-2,0,-3684.1595794440,-10779.8128202268,23720.0975529415,-11564.2764020987,9956.1205837977,3.6381413501,13348.9733336037,20254.9808517040,-9529.1195991902,-11362.5603241679,7817.1368238991,1245.3272667376,-15453.3521637379,5928.6494384944,-18726.4504414124,-6188.3080886960
158242171365,6870,-2,0,-3679.8643824655,-10777.7686471605,23718.3697399926,-11560.6747638391,9957.4590304482,6.2298607733,13349.2166875401,20257.1101986481,-9525.9925011067,-11359.0316920893,7816.5041036643,1246.6413779945,-15451.9285432096,5930.9978039812,-18724.4671068303,-6186.7262881090
158242171365,6870,-2,0,-3670.1667280976,-10776.0895049989,23731.0119769916,-11552.7535932073,9960.7808116809,10.3547099963,13353.7795738487,20263.0723700913,-9523.9604957373,-11353.8969240300,7817.1854946864,1251.3381089682,-15450.9794628574,5933.5895234045,-18724.2115851970,-6186.4099279916
158242340905,6873,-2,0,-3696.5462948098,-10798.2103778231,23716.4107408041,-11572.7572867843,9939.5968515122,-8.7364063189,13334.2990912352,20253.4598896012,-9539.1579490691,-11368.2183031906,7805.4801703427,1239.6936231086,-15469.3770204537,5931.9103812429,-18726.0002366300,-6193.8200553567
158242340905,6873,-2,0,-3705.9640921507,-10798.4658994563,23706.7009187394,-11577.1863284278,9939.1466467297,-10.5737285391,13333.4960232449,20250.5761454541,-9538.8172535581,-11369.5932529316,7805.9060397315,1239.5597784436,-15468.4644431919,5932.2267413603,-18724.7591315540,-6192.5667825840
158242340905,6873,-2,0,-3702.7639878863,-10793.8908454509,23704.8270934287,-11574.5216028236,9942.7969557766,-7.3614565779,13334.5789482621,20248.8118294148,-9536.9920990346,-11368.1574647065,7807.7555296486,1239.8761385610,-15465.6537052258,5929.9270466608,-18726.4382737156,-6191.6055345350
158242340905,6873,-2,0,-3692.7864764915,-10789.9728470739,23713.3201458111,-11566.6977737664,9946.3985940362,-1.9346637948,13336.6231213284,20250.9411763588,-9534.9965967557,-11365.1520435912,7809.1426470864,1241.0685728496,-15464.5099417245,5929.9027112671,-18727.7767203661,-6192.4572733126
158242340905,6873,-2,0,-3685.8022185151,-10791.8466723847,23726.4125875926,-11563.2056447782,9947.7492083835,0.2068508460,13339.3121823263,20251.9997659824,-9533.2444484132,-11363.2538828868,7810.0308889545,1241.8229700526,-15465.4833574703,5933.1879894093,-18727.4238571583,-6192.5059440999
158242340905,6873,-2,0,-3689.5011983493,-10797.1396205026,23728.2012390255,-11567.4643386663,9945.5103521681,-1.4844590124,13338.0832449471,20252.9366786378,-9534.9479259684,-11364.4463171755,7811.0529754876,1242.4191871970,-15466.7853010304,5934.8914669645,-18723.8465542923,-6191.5690314445
158242340905,6873,-2,0,-3701.7784044436,-10799.7800107132,23714.8289402171,-11572.1610696399,9941.6410245784,-5.1956065434,13337.0368230204,20250.3692946082,-9536.9799313378,-11368.0357877383,7810.3959198592,1240.4358526148,-15467.2476735096,5931.1316486463,-18723.9682312605,-6192.0922424079
158242340905,6873,-2,0,-3705.0271794954,-10801.2401343320,23704.3647209494,-11575.2760000266,9940.0105532041,-8.0550152968,13334.1530788733,20246.8041594390,-9539.9366816658,-11371.2723950932,7808.1327282501,1237.1992452599,-15469.1701696077,5925.5466758045,-18730.7578060877,-6194.2337570487
158242347443,6874,-2,0,-3698.0064184285,-10800.2545508893,23706.8347634045,-11569.5936856103,9939.6698576931,-7.7629905730,13334.5789482621,20247.7654074880,-9541.4576437687,-11371.5035813328,7806.7212754186,1235.7877924285,-15470.5451193487,5922.2857330560,-18735.8560710566,-6197.5555382814
158242347443,6874,-2,0,-3688.8198073272,-10798.1130362485,23720.6937700858,-11563.4855018052,9941.2273228864,-5.4389604799,13335.1143269223,20251.7077412587,-9541.1534513481,-11369.3377312983,7806.8551200837,1237.1870775631,-15469.5595359060,5926.6417685186,-18735.0651707631,-6196.0589115722
158242347443,6874,-2,0,-3692.5309548582,-10799.3054705371,23724.0885574994,-11565.0673023922,9941.9573846958,-5.6093082354,13338.0345741599,20254.1412806233,-9539.1822844628,-11368.4008186429,7808.6437715167,1239.8396354705,-15468.7443002189,5932.8594615951,-18731.4270294130,-6194.8056387994
158242347443,6874,-2,0,-3699.6733928933,-10801.3861466938,23715.6928466916,-11569.3746670675,9940.5459318643,-6.9599225827,13336.9759845363,20252.8393370632,-9539.4013030056,-11369.1308804523,7808.6681069103,1240.5696972799,-15468.7077971284,5934.2830821234,-18729.9304027038,-6193.4428567552
158242347443,6874,-2,0,-3701.2065226930,-10796.8840988694,23707.6986698789,-11569.3381639770,9941.6410245784,-4.6845632768,13335.6740409762,20251.0628533271,-9539.6568246389,-11370.0312900172,7806.1615613648,1238.6228657882,-15468.7443002189,5928.5642646166,-18731.0011600242,-6194.3797694106
158242347443,6874,-2,0,-3692.0564146821,-10791.4938091768,23713.9650337427,-11562.8649492672,9946.2647493711,-1.1559311982,13336.5744505411,20252.3769645839,-9538.0993594455,-11365.6752545546,7805.4680026459,1238.6350334850,-15465.8970591623,5926.8121162741,-18732.7289729731,-6194.2337570487
158242347443,6874,-2,0,-3678.4529296341,-10787.6488169807,23726.5464322576,-11556.7811008557,9947.0556496646,1.8373222203,13339.3000146294,20253.9709328677,-9536.7609127950,-11363.2782182805,7805.3219902840,1239.3894306880,-15465.0209849911,5926.4349176726,-18732.4491159461,-6194.5501171661
158242347443,6874,-2,0,-3679.0734821720,-10786.3347057239,23731.1336539599,-11558.5697522887,9946.3620909457,0.6083848411,13338.3022634900,20252.4378030680,-9537.6126515726,-11366.0037823688,7803.8253635748,1238.9027228151,-15467.4058535683,5927.7003581422,-18732.7776437604,-6195.1341666136
158242355060,6875,-2,0,-3690.4867817920,-10790.8610889420,23718.9416217433,-11566.2475689840,9940.4607579866,-4.6602278832,13335.5401963111,20248.4346308133,-9541.6279915242,-11370.2259731664,7801.0997994865,1237.3452576218,-15469.5960389965,5927.6151842644,-18732.8628176381,-6196.5699548387
158242355060,6875,-2,0,-3692.1050854694,-10790.3500456754,23710.4850724513,-11568.1944004756,9941.0569751309,-5.4997989640,13333.8732218464,20246.2566130820,-9540.9831035926,-11370.7613518266,7801.7325197212,1238.3186733676,-15469.9975729916,5930.5962699860,-18730.4901167576,-6194.6596264375
158242355060,6875,-2,0,-3682.1640771651,-10787.3932953475,23711.9330283733,-11562.3295706070,9943.8798807938,-1.9833345821,13337.2315061695,20248.5076369942,-9538.0750240519,-11368.6076694889,7803.4968357606,1238.3065056708,-15467.5031951429,5929.7688666021,-18730.0155765815,-6193.7227137822
158242355060,6875,-2,0,-3671.2374854181,-10784.3027003544,23726.7776184973,-11553.2281333834,9947.8343822613,2.7498994820,13341.7943924781,20253.7032435376,-9534.8262490002,-11364.6166649310,7805.9668782156,1242.5286964684,-15463.4878551914,5929.2821587292,-18729.5775394959,-6191.4230190826
158242355060,6875,-2,0,-3667.5263378871,-10785.3734576749,23735.4775217257,-11551.9383575202,9949.1849966086,4.0883461325,13344.7146397156,20257.0371924671,-9533.0497652640,-11361.5017345443,7808.9601316341,1244.9257327425,-15462.4657686582,5933.3826725585,-18726.5721183807,-6189.5735291655
158242355060,6875,-2,0,-3676.3965888710,-10786.3833765112,23730.1237351236,-11557.2799764255,9947.3598420852,1.8981607044,13344.2887703268,20255.7960873912,-9533.1836099291,-11362.0371132045,7809.7388642307,1245.1447512853,-15461.2246635823,5942.2772589361,-18721.0723194167,-6185.9840586028
158242355060,6875,-2,0,-3682.8698035808,-10785.1666068289,23719.3796588289,-11559.3363171885,9946.7879603345,0.7422295062,13342.4514481066,20253.1556971806,-9532.7455728434,-11362.0736162950,7809.7875350180,1245.2177574662,-15460.1904093523,5948.8234798268,-18718.0668983014,-6183.8547116588
158242355060,6875,-2,0,-3675.8003717267,-10782.4045396501,23717.9682059975,-11555.5643311734,9947.8587176549,0.6205525380,13342.2811003511,20252.9001755473,-9532.3440388483,-11362.1952932632,7809.8240381085,1242.5286964684,-15459.9105523254,5945.4408601100,-18720.0624005804,-6185.1444875220
158242386351,6877,-2,0,-3674.0238879905,-10778.4135350921,23724.5387622818,-11551.3543080727,9946.2769170679,-2.3727008805,13342.5122865907,20255.0173547945,-9537.5396453917,-11367.4639059876,7813.6081918204,1242.4800256811,-15461.8817192107,5930.4137545337,-18722.6419523068,-6187.3955114342
158242386351,6877,-2,0,-3669.5218401660,-10776.4667036005,23721.9592105554,-11548.6530793780,9948.6374502516,0.5597140539,13343.0233298573,20256.5139815037,-9534.9357582716,-11364.6775034151,7814.9223030773,1243.7089630602,-15460.6771172253,5934.2222436393,-18718.8091278076,-6186.3125864170
158242386351,6877,-2,0,-3661.4424894756,-10769.7744703478,23734.1877458624,-11540.8170826240,9950.5842817433,4.4777124308,13343.7533916666,20259.0448624429,-9532.2832003642,-11359.8834308669,7815.6645325835,1246.5927072072,-15459.2291613033,5935.6701995612,-18713.6986951420,-6185.3391706712
158242386351,6877,-2,0,-3655.4438149419,-10769.4094394432,23747.0611691011,-11537.7386553278,9954.1980876997,8.2375307491,13347.3185268358,20263.2548855436,-9531.5288031611,-11357.9731024657,7815.7497064613,1248.4908679116,-15458.0975654988,5933.1271509252,-18711.0461372346,-6185.4973507299
158242386351,6877,-2,0,-3659.3861487125,-10770.9304015460,23744.0679156827,-11542.2650385460,9951.5455297923,7.5439720302,13346.0530863662,20263.3765625119,-9531.0055921978,-11359.9929401383,7816.4432651802,1249.8414822590,-15457.9515531369,5934.2465790329,-18708.7586102319,-6182.4554265241
158242386351,6877,-2,0,-3668.0252134568,-10768.2778436386,23733.7132056863,-11544.0171868885,9948.9903134595,4.5263832181,13342.9746590700,20258.1566205748,-9532.2345295769,-11360.1876232875,7815.4941848280,1248.7220541512,-15458.4625964035,5938.5052729210,-18709.5373428285,-6181.3116630228
158242386351,6877,-2,0,-3664.8859476765,-10766.2945090565,23729.5031825856,-11540.6589025653,9954.6604601790,7.6899843921,13344.9336582585,20260.2129613379,-9531.8573309754,-11358.3624687640,7814.8857999868,1249.2209297210,-15456.9781373911,5941.0118184665,-18708.7099394446,-6180.9587998149
158242386351,6877,-2,0,-3655.1761256118,-10764.3233421712,23737.2783408555,-11535.1834389950,9955.1350003550,9.6368158838,13346.1625956376,20262.7073391866,-9531.0664306819,-11357.7540839229,7812.6104406810,1247.4322782880,-15457.3066652053,5936.9113046372,-18714.0515583498,-6183.1246498494
158242422668,6878,-2,0,-3648.3378799973,-10762.5225230414,23749.4825407689,-11530.5840495959,9954.7456340567,8.6512324411,13348.1337625229,20264.4229844387,-9533.4026284719,-11359.5305676590,7810.4932614338,1247.6391291340,-15458.2557455575,5932.5552691745,-18717.5071842476,-6184.7916243141
158242422668,6878,-2,0,-3656.4659014750,-10766.7447138389,23746.2581011108,-11536.2176932250,9950.9858157384,4.7332340641,13346.5154588454,20264.1674628054,-9534.8627520906,-11363.8257646375,7810.9312985194,1247.0794150801,-15460.5189371666,5932.7256169301,-18719.6730342820,-6184.6577796491
158242422668,6878,-2,0,-3665.8350280287,-10770.6140414286,23732.3869267326,-11543.5548144092,9947.9195561390,1.3384466505,13345.0309998330,20260.3103029125,-9535.9578448047,-11366.2349686085,7809.9092119863,1245.3394344345,-15461.4193467315,5933.8815481282,-18718.7847924140,-6184.0980655952
158242422668,6878,-2,0,-3668.0008780632,-10768.1926697609,23725.3296625753,-11542.4840570888,9948.5522763738,0.8639064744,13342.7434728303,20257.7429188829,-9535.0087644525,-11366.7946826623,7809.3373302356,1243.6116214856,-15460.9934773427,5932.0807289984,-18721.5225241991,-6184.1954071698
158242422668,6878,-2,0,-3657.7070065509,-10764.9317270123,23732.5451067913,-11534.6602280316,9950.7911325893,3.0905949930,13345.7853970361,20261.6487495630,-9532.5143866038,-11363.4363983392,7810.0673920450,1245.8261423074,-15459.9348877191,5928.9414632181,-18721.4251826245,-6184.5604380745
158242422668,6878,-2,0,-3647.5713150974,-10761.2449148750,23748.1684295120,-11528.6007150138,9951.2170019781,6.3880408320,13347.1238436866,20263.8997734753,-9530.9569214105,-11360.3458033462,7812.0750620207,1248.4421971243,-15457.5621868386,5932.0442259080,-18720.1719098518,-6182.3824203432
158242422668,6878,-2,0,-3651.2946303253,-10762.8145477651,23751.5023784415,-11530.3650310531,9952.8109702619,5.7431529004,13348.9124951196,20265.8952757542,-9530.9325860168,-11360.5161511017,7812.1602358985,1248.7950603322,-15456.9416343006,5938.0672358353,-18715.0006387020,-6180.6789427880
158242422668,6878,-2,0,-3661.8805265612,-10766.8298877167,23739.4563585868,-11537.9576738706,9949.9880645989,2.6525579074,13345.6880554615,20262.1476251328,-9532.8794175085,-11363.3633921582,7812.0750620207,1247.1402535643,-15457.5986899291,5939.8193841778,-18713.6256889610,-6181.2751599323
158242485247,6880,-2,0,-3640.4775478497,-10758.1299844883,23760.4821386968,-11529.0630874931,9954.3441000616,13.0194356005,13349.3018614179,20270.6041744247,-9527.2944446668,-11356.2087864264,7819.1079907844,1251.4597859364,-15456.6009387896,5942.7152960217,-18712.0925591614,-6177.1746461030
158242485247,6880,-2,0,-3648.1675322418,-10761.8532997161,23752.9868374539,-11536.0351777726,9953.9790691569,11.9486782801,13347.7322285277,20268.0124550014,-9528.6693944078,-11358.4719780354,7820.3734312540,1249.8171468653,-15456.9781373911,5940.0505704175,-18711.2529880806,-6177.4423354331
158242485247,6880,-2,0,-3652.2072075870,-10762.7537092810,23741.6587117117,-11537.5683075723,9952.7744671714,10.1721945440,13346.0044155789,20265.8831080574,-9530.7257351708,-11359.4940645685,7817.7695441339,1246.4223594517,-15456.3697525499,5938.0794035322,-18714.2949122863,-6179.0849745042
158242485247,6880,-2,0,-3648.0215198799,-10757.0592271679,23744.6397974333,-11530.5597142023,9955.8042236803,12.3745476689,13346.6493035105,20266.8200207128,-9530.7013997772,-11358.0461086466,7817.3193393514,1245.3637698281,-15455.4450075914,5940.2574212635,-18718.6387800521,-6181.1413152672
158242485247,6880,-2,0,-3637.5329652185,-10753.7496136320,23754.7511534932,-11522.5533696928,9956.7411363357,14.1875344956,13350.3604510415,20268.5965044489,-9529.4237916108,-11356.7319973897,7818.1345750386,1246.7752226596,-15455.6640261342,5940.5616136840,-18721.1696609913,-6182.8326251256
158242485247,6880,-2,0,-3637.4477913408,-10753.7739490257,23761.0175173570,-11523.6606301037,9954.0399076410,11.7053243437,13350.6403080684,20272.0399626498,-9530.9082506232,-11358.9100151210,7818.5361090337,1247.9554892514,-15455.3598337136,5939.1136577621,-18719.8798851280,-6183.3680037858
158242485247,6880,-2,0,-3650.3942207604,-10754.8447063461,23750.3951180306,-11527.8949885981,9950.5599463496,6.6557301621,13348.7178119704,20270.5555036374,-9533.4999700465,-11361.5139022412,7818.5361090337,1249.4156128702,-15457.2823298117,5941.3403462807,-18714.7694524624,-6182.0538925290
158242485247,6880,-2,0,-3655.0301132499,-10757.8136243709,23736.3049251096,-11532.2023532734,9949.4891890292,3.6138059564,13346.1869310312,20268.5721690553,-9533.8163301639,-11362.1344547791,7817.1611592927,1249.4156128702,-15457.4891806577,5939.6247010287,-18710.4134169998,-6180.4234211547
158242582707,6883,-2,0,-3623.9051447768,-10739.9149423443,23753.4492099332,-11514.8390499070,9962.4599538425,16.2803783491,13354.1689401471,20274.3883281366,-9522.9992476883,-11348.8594975453,7823.5126970343,1253.1875988853,-15449.1908114244,5947.8865671714,-18700.2047193653,-6169.8010218283
158242582707,6883,-2,0,-3613.2097392694,-10734.6463296200,23770.2406315488,-11507.8304565370,9964.7961516325,20.1740413324,13358.4763048224,20278.5740158437,-9520.1033358444,-11347.6913986503,7825.5568701006,1254.0393376629,-15447.2561476296,5945.7937233179,-18705.1934750627,-6170.1660527330
158242582707,6883,-2,0,-3614.5360182232,-10736.1916271165,23769.5957436172,-11513.2450816232,9962.7641462630,19.1154517088,13357.6610691353,20276.2986565378,-9520.1763420253,-11347.6913986503,7826.3112673036,1253.9419960883,-15449.0934698498,5948.6652997681,-18703.4413267202,-6168.5234136619
158242582707,6883,-2,0,-3621.0214006298,-10736.0577824515,23759.2166982272,-11519.1950853697,9961.4013642189,16.9617693712,13355.7142376436,20274.0841357161,-9520.8333976538,-11347.5453862884,7826.4694473623,1253.6986421518,-15448.9839605784,5951.3665284628,-18700.4967440891,-6166.4549052020
158242582707,6883,-2,0,-3616.0691480228,-10727.7715809150,23755.0066751265,-11516.7128752178,9962.5086246298,16.7305831315,13353.8769154233,20273.0985522734,-9521.0402484998,-11348.4092927628,7826.6154597242,1253.6986421518,-15449.0082959721,5944.4066058801,-18702.7477680013,-6168.9249476570
158242582707,6883,-2,0,-3596.6981746807,-10712.7201399451,23766.2617946877,-11504.8250354218,9966.7064800337,20.5512399339,13356.8214980545,20274.8263652223,-9518.6918830129,-11345.5255486158,7826.8344782670,1253.7959837264,-15446.5382535170,5939.8802226620,-18707.1159711608,-6170.8231083614
158242582707,6883,-2,0,-3575.7088976611,-10695.9652214199,23785.4624202743,-11493.3387296209,9973.0093469880,26.6715914359,13363.8909299086,20283.8426285681,-9514.8225554232,-11340.4759544343,7831.6528862089,1258.7969071206,-15440.4300697119,5944.8811460562,-18702.9667865441,-6165.7126756958
158242582707,6883,-2,0,-3566.5101188630,-10680.0255385818,23794.2109942900,-11488.6663340409,9977.4383886315,29.5066647956,13370.4614861930,20288.5271918449,-9510.0528182687,-11338.7359737886,7836.6903126936,1264.4792215370,-15433.9081842148,5951.6220500961,-18698.2213847832,-6160.7725907856
158242613789,6884,-2,0,-3562.7868036352,-10666.9452644972,23787.4092517660,-11488.4716508917,9976.9030099713,27.4989948198,13372.2258022323,20288.1378255466,-9510.5395261416,-11339.5998802630,7838.5398026106,1265.2092833463,-15432.3628867183,5946.7184682764,-18699.5354960401,-6158.6919146289
158242613789,6884,-2,0,-3553.8557141671,-10652.9524131508,23780.8143600879,-11486.0746146176,9976.9395130618,27.4868271230,13372.4691561688,20287.9309747006,-9510.9653955304,-11341.2668547278,7838.3816225519,1264.9780971067,-15430.5133968012,5938.9311423098,-18700.6914272383,-6158.6797469321
158242613789,6884,-2,0,-3535.3121442090,-10636.6842024985,23789.5507664068,-11475.0141782056,9980.0666111453,31.0641299890,13375.1217140762,20292.1288301045,-9509.2740856720,-11339.1740108742,7837.9314177695,1266.2435375763,-15429.2722917252,5939.2961732144,-18698.8419373212,-6157.8036727608
158242613789,6884,-2,0,-3515.0650966956,-10623.2023944187,23807.6562992794,-11465.9735794661,9980.0666111453,34.7631098231,13378.3704891279,20296.3753562957,-9505.3560872950,-11333.7958888785,7839.6713984152,1270.7212500071,-15427.5323110796,5945.0271584181,-18692.9162689684,-6154.9320963106
158242613789,6884,-2,0,-3503.9803248899,-10611.6674178305,23815.4192898524,-11466.1074241312,9982.6583305685,36.4544196815,13379.3560725706,20298.8575664476,-9504.9302179062,-11332.6399576803,7839.5983922342,1271.4269764229,-15428.0068512557,5952.5102919642,-18690.6165742689,-6153.8491712934
158242613789,6884,-2,0,-3499.4661093686,-10597.5772249096,23809.7369754361,-11469.8915778431,9979.3365493359,32.4877505173,13373.3939011273,20294.0269908089,-9509.0063963419,-11336.4241113922,7836.3374494857,1267.4238041681,-15431.6571603025,5953.2038506831,-18693.3664737508,-6155.0781086725
158242613789,6884,-2,0,-3488.4908468343,-10581.9782375826,23801.5237800806,-11467.3363615103,9977.2680408760,30.5409190256,13369.3055549948,20288.1134901529,-9512.1699975158,-11338.8333153632,7831.4825384533,1263.2016133705,-15433.9811903957,5950.4417835043,-18698.8784404116,-6159.9086843112
158242613789,6884,-2,0,-3466.2239616483,-10562.8871212674,23809.0555844140,-11457.3953532059,9980.7845052578,35.1038053342,13370.5344923739,20288.5271918449,-9510.1014890559,-11337.2880178667,7829.8033962918,1261.2669495757,-15431.2921293979,5950.8919882867,-18701.7986876491,-6160.7239199983
158242703988,6885,-2,0,-3442.3387727849,-10540.2673728735,23828.9254333259,-11443.6823588865,9987.0873722121,41.3214984107,13376.0829621252,20294.4528601977,-9505.5872735346,-11330.3402629808,7834.3662826004,1265.3796311019,-15426.1086905513,5954.1042602480,-18699.1826328322,-6158.3390514211
158242703988,6885,-2,0,-3429.9885605096,-10525.8486521383,23839.2314725349,-11440.5309254093,9989.1680483688,43.3656714770,13379.9766251085,20297.0324119241,-9504.0176406445,-11329.1478286921,7836.8363250554,1268.2755429457,-15425.1109394118,5953.1551798958,-18696.8586027390,-6155.9176797533
158242703988,6885,-2,0,-3429.8303804509,-10516.4308547974,23832.4418977077,-11443.6458557960,9987.3307261486,39.7031947333,13380.5120037687,20297.3731074352,-9503.7742867080,-11332.1045790201,7839.0508458772,1268.9569339678,-15424.2348652406,5953.7148939496,-18694.2182125285,-6154.0316867457
158242703988,6885,-2,0,-3427.3968410863,-10503.2532391381,23825.2021180980,-11443.3051602850,9987.7687632342,40.7496166600,13381.2664009718,20297.6407967653,-9502.9225479304,-11332.3235975629,7841.3018697895,1271.0741132150,-15422.9207539837,5955.0046698129,-18691.2127914132,-6152.6810723984
158242703988,6885,-2,0,-3409.3886497883,-10489.9296111170,23831.0426125731,-11433.8021890663,9990.4821596257,44.2417456482,13384.4665052362,20301.7656459883,-9500.8175363800,-11329.0626548144,7842.6159810463,1273.2399632495,-15421.3267856999,5956.9758366982,-18690.0690279118,-6152.0605198604
158242703988,6885,-2,0,-3387.4137893261,-10476.3139583721,23848.7101083600,-11424.4330625126,9995.1058844184,50.6297864803,13389.8324595351,20307.8129913093,-9496.9360410935,-11323.3681727012,7846.2662900932,1277.7785141644,-15417.5061288975,5957.4868799647,-18689.3876368897,-6150.1015206719
158242703988,6885,-2,0,-3378.7017184009,-10466.4946270360,23860.0747371926,-11419.1887851819,9998.5371749225,53.6230398987,13393.7504579121,20312.3758776179,-9493.0180427165,-11319.6813605639,7850.7318348272,1281.8303572065,-15413.9409937283,5956.4526257348,-18683.6688193830,-6145.9766714489
158242703988,6885,-2,0,-3377.8256442296,-10458.6829656757,23856.5947759012,-11420.2473748055,9999.3037398223,53.6838783828,13394.7603767484,20314.0915228699,-9492.3123163008,-11319.6448574734,7852.9220202554,1284.2882319647,-15411.5439574542,5957.6937308107,-18678.8990822284,-6142.2898593116
158242713857,6886,-2,0,-3370.3790137740,-10442.0497241187,23850.6447721548,-11416.0251840079,10002.3578317249,53.0024873607,13397.3034253844,20314.6512369238,-9490.9130311662,-11318.9999695418,7855.2217149549,1283.5825055490,-15407.2852635662,5960.7478227133,-18675.5529656021,-6139.9536615216
158242713857,6886,-2,0,-3356.3496593371,-10422.4962353243,23854.8547952556,-11403.5046239771,10008.2348292904,56.8839826473,13400.1384987441,20316.5007268408,-9487.5182437526,-11315.9337099424,7858.0932914051,1285.8943679453,-15402.1018247196,5963.2178651684,-18675.0662577291,-6136.6805510762
158242713857,6886,-2,0,-3337.4653938679,-10408.5277193715,23872.2789371060,-11390.8745546749,10014.4403546701,62.9678310587,13405.8208131605,20322.9252707634,-9481.5925753998,-11311.7358545385,7862.7535192883,1288.7902797892,-15396.2126594573,5964.8240011490,-18678.3637035682,-6134.4660302544
158242713857,6886,-2,0,-3332.0751041754,-10403.8188207010,23883.2663673371,-11386.2508298822,10017.3119311203,63.4788743253,13410.4932087405,20325.7481764263,-9479.3415514875,-11311.6506806607,7865.7102696163,1292.3310795647,-15393.0733936770,5965.8095845916,-18680.0550134265,-6132.2880125231
158242713857,6886,-2,0,-3340.3856411054,-10401.2392689746,23879.1050150237,-11391.0935732177,10017.7621359027,61.9214091320,13412.8415742273,20327.1839646514,-9478.3316326512,-11311.3708236338,7870.4191682868,1296.2125748512,-15389.6664385666,5968.6324902546,-18677.1347661890,-6127.7616293050
158242713857,6886,-2,0,-3335.3968854080,-10392.1256640542,23873.3983652137,-11389.4144310562,10019.8063089690,65.3526996360,13415.1899397141,20327.3543124069,-9476.4578073405,-11309.8498615309,7872.8527076513,1298.2689156143,-15386.4541666053,5966.9533480930,-18673.8859911373,-6125.2429160626
158242713857,6886,-2,0,-3317.0723339927,-10380.3838366200,23876.5863017813,-11382.5153469576,10023.3714441381,69.4045426781,13416.2850324282,20330.1772180698,-9474.5231435457,-11306.1508816968,7874.0086388495,1298.7069526999,-15382.8890314362,5965.3107090219,-18670.1383405158,-6125.9364747816
158242713857,6886,-2,0,-3298.0055530711,-10365.2228863787,23889.8855944088,-11372.1849723549,10025.1235924806,74.3081244977,13420.5437263162,20334.3385703833,-9473.6105662839,-11303.4009822148,7874.0329742432,1299.4978529934,-15383.7407702138,5970.3481355066,-18668.6782168971,-6126.5813627132
158242743769,6888,-2,0,-3247.9963191288,-10295.2099588595,23906.3119851198,-11355.3205445583,10034.2737004915,81.8277611343,13425.8488421310,20340.7996173963,-9467.9039164740,-11295.1999545561,7878.5471897645,1305.0584904415,-15375.1503762568,5968.1822854721,-18674.6890591276,-6120.2054895780
158242743769,6888,-2,0,-3229.0025443882,-10285.2324474646,23917.8226263143,-11345.5377163126,10038.4472205017,86.9625291936,13431.4338149728,20346.9686396855,-9464.5943029381,-11292.6325705265,7880.6400336180,1308.5262840360,-15371.8164273273,5968.6203225577,-18674.7864007022,-6120.0959803065
158242743769,6888,-2,0,-3215.3747239465,-10278.6862265739,23930.3431863451,-11338.9063215441,10040.2845427220,88.9215283821,13434.1350436674,20350.2660855245,-9463.5357133145,-11292.7299121011,7881.3822631242,1309.2563458454,-15371.3053840608,5968.6933287387,-18675.2122700910,-6121.4709300475
158242743769,6888,-2,0,-3221.3855661771,-10274.3910295954,23926.1331632443,-11342.0577550213,10036.7072398561,84.4559836480,13433.5023234327,20351.1299919989,-9466.1152650410,-11295.3703023116,7880.8103813735,1309.3293520263,-15371.9259365987,5970.2021231447,-18676.5142136511,-6122.5295196711
158242743769,6888,-2,0,-3228.0047932488,-10269.6456278345,23916.6545274193,-11344.8076545033,10035.6364825356,83.4582325086,13432.5775784741,20349.7550422579,-9466.7966560631,-11295.4554761894,7882.0271510558,1308.7574702756,-15370.9403531561,5968.8393411006,-18675.1757670005,-6120.2298249716
158242743769,6888,-2,0,-3221.3368953898,-10265.3260954623,23912.9068767978,-11343.4205370654,10038.4837235922,85.7579272081,13432.7844293201,20349.5481914120,-9463.9737504002,-11291.1967823014,7883.4629392809,1310.4731155277,-15368.3851368232,5970.3238001130,-18670.3086882714,-6115.8737895090
158242743769,6888,-2,0,-3206.0907712706,-10258.4026759701,23924.6487042319,-11337.3853594413,10043.4116408055,91.7931048323,13435.8750243131,20352.1642462289,-9460.3599444438,-11285.9038341834,7884.0834918189,1311.9454068433,-15366.5234792093,5972.6599979030,-18669.6272972493,-6113.8661195332
158242743769,6888,-2,0,-3189.4575297137,-10248.0601336706,23938.9214126053,-11329.8170520174,10045.7478385955,93.8372778985,13437.7366819270,20351.6897060528,-9459.4960379693,-11284.4802136551,7884.4606904204,1311.7750590877,-15366.7059946617,5971.5405697952,-18669.6272972493,-6113.7687779586
158242835099,6891,-2,0,-3086.4214730170,-10137.1759125231,23975.3393291963,-11300.1643748599,10054.9344496968,102.6831934888,13448.1643981043,20363.3950303965,-9452.9011462913,-11281.1097616352,7893.7324753995,1317.1166779930,-15354.1976023277,5978.3544800161,-18662.4483561238,-6108.2933143883
158242835099,6891,-2,0,-3081.8464190116,-10123.5359243846,23966.6637613616,-11301.1134552121,10052.9632828115,99.8967909164,13443.1756424069,20360.6086278240,-9454.2395929418,-11283.4216240315,7890.1186694431,1313.1500088287,-15356.3634523622,5972.2584639078,-18670.7223899633,-6110.7998599338
158242835099,6891,-2,0,-3065.4443636942,-10109.0563651653,23970.0950518656,-11292.8515890693,10054.8614435159,102.6223550047,13444.5870952384,20360.1705907384,-9454.1179159736,-11282.8254068872,7889.0357444259,1312.7241394399,-15354.1854346309,5968.6811610419,-18677.1347661890,-6111.9557911320
158242835099,6891,-2,0,-3049.5776870371,-10098.4704689293,23983.7715430946,-11283.6893133616,10057.3558213646,105.0072235820,13448.0548888329,20365.7920666706,-9451.9155628486,-11280.7690661241,7889.5954584797,1315.4983743156,-15354.0394222690,5968.2431239562,-18679.3127839203,-6111.2500647163
158242835099,6891,-2,0,-3045.9517133839,-10092.8611606939,23992.5687878976,-11278.6397191801,10057.6600137852,104.1068140171,13451.4618439433,20369.1746863874,-9452.3292645406,-11281.4869602367,7892.1506748125,1318.6863108832,-15353.1511804009,5971.6135759762,-18675.8328226290,-6109.7534380070
158242835099,6891,-2,0,-3042.7759445131,-10085.0008285463,23990.8653103424,-11280.4527060067,10055.7253499903,103.3159137236,13452.7759552002,20370.8659962457,-9451.7817181836,-11281.7668172636,7895.1439282310,1321.8134089667,-15351.4963736330,5975.7262575023,-18667.2667640656,-6105.3974025444
158242835099,6891,-2,0,-3037.6655118475,-10077.1891671860,23982.9319720138,-11281.2192709066,10055.4576606602,103.2429075427,13454.2969173031,20373.2995356103,-9448.2409184081,-11280.3675321290,7899.2444420603,1324.0279297884,-15348.3692755495,5981.2503918600,-18657.8489667247,-6100.3234729693
158242835099,6891,-2,0,-3021.7744997967,-10062.1377262160,23987.0811566305,-11275.0259132237,10062.4297509398,107.8666323354,13457.8133816849,20378.3856328823,-9444.2742492438,-11275.5369564902,7903.2841174055,1328.0189343464,-15343.6968799695,5979.9849513904,-18651.6921121323,-6096.4541453796
158242907619,6893,-2,0,-2929.1053207932,-9960.5252900476,24029.9479525377,-11242.3921503446,10069.3775058257,113.5367790549,13460.4294365018,20379.4685578996,-9446.5374408529,-11276.2791859964,7903.7829929753,1327.7512450163,-15338.0023978564,5976.2738038594,-18656.9485571598,-6102.7083415466
158242907619,6893,-2,0,-2914.4310784247,-9951.2413373717,24029.0597106696,-11236.9653575615,10069.6086920653,119.1704226839,13463.1915036806,20382.3523020466,-9443.0939826520,-11272.9452370670,7905.5716444082,1328.8828408208,-15335.0091444379,5976.3346423435,-18657.1919110962,-6100.4938207248
158242907619,6893,-2,0,-2896.0213531316,-9941.8965462117,24041.0448920402,-11228.8860068711,10077.8583905112,124.6337185574,13469.1658428207,20385.7349217634,-9438.9447980354,-11267.6036181617,7907.5306435967,1331.0365231584,-15331.1033137578,5975.9452760452,-18659.1995810720,-6098.2427968125
158242907619,6893,-2,0,-2888.0515117126,-9934.1457233355,24055.6217928341,-11223.1063508802,10082.3117675484,129.8414927976,13474.1789339118,20392.8530244048,-9432.9582911985,-11262.2619992564,7911.2052880373,1334.9058507481,-15326.6742721142,5980.5933362315,-18658.8102147737,-6092.2319545820
158242907619,6893,-2,0,-2896.3985517331,-9934.8879528417,24056.7047178513,-11226.7201568366,10083.6137111085,130.4620453356,13476.9166656969,20393.8264401506,-9430.0502116578,-11261.5562728407,7915.7803420427,1338.9576937902,-15324.4962543829,5982.7348508724,-18655.7682905680,-6086.9998449481
158242907619,6893,-2,0,-2904.3075546680,-9939.0493051551,24045.1454058695,-11230.6989936977,10082.2630967611,128.8924124454,13476.0040884352,20393.1328814317,-9429.0767959120,-11261.3007512074,7917.6298319598,1339.1888800298,-15325.1898131018,5986.3608245256,-18652.5925216972,-6085.1016842438
158242907619,6893,-2,0,-2906.9236094850,-9940.0105532041,24039.1223959422,-11230.7354967882,10081.4600287708,128.2353568170,13474.0329215499,20392.5853350747,-9429.4783299071,-11260.1813230997,7916.4495653679,1338.6900044601,-15327.4286693172,5986.6893523398,-18651.0472242007,-6087.4865528211
158242907619,6893,-2,0,-2899.2579604865,-9939.3900006662,24044.5126856347,-11224.7733253449,10082.8106431182,131.1312686608,13474.5196294228,20393.8994463316,-9429.9528700832,-11258.6725286936,7916.6442485171,1339.3835631790,-15329.7770348041,5987.9791282030,-18649.2342373740,-6088.4112977796
158242927802,6894,-2,0,-2888.3313687395,-9935.8857039812,24056.1815068879,-11221.3176994472,10081.4235256804,128.7342323867,13471.5507113980,20393.1085460381,-9432.2890678732,-11260.1326523124,7915.5004850158,1339.2862216044,-15332.9041328875,5984.4626638212,-18649.0882250122,-6091.7939174964
158242927802,6894,-2,0,-2896.6662410632,-9936.4697534287,24052.7745517775,-11227.9612619125,10073.9890629215,124.6337185574,13470.0540846888,20390.9426960036,-9438.7987856735,-11266.7883824746,7911.5703189419,1335.2343785624,-15338.6472857880,5980.8488578648,-18653.8336267731,-6094.9575186703
158242927802,6894,-2,0,-2912.1070483315,-9941.7992046371,24037.0173843918,-11236.1379541776,10065.5568490232,115.7269644830,13463.3253483457,20384.7493383207,-9446.1845776450,-11275.1719255856,7907.4333020221,1331.7909203615,-15343.1980043998,5977.2472196052,-18659.0048979229,-6098.1941260252
158242927802,6894,-2,0,-2919.9917158728,-9943.9163838843,24026.1881342194,-11237.2938853757,10063.2328189301,113.7192945072,13460.7092935288,20382.5591528926,-9447.9123905939,-11278.4085329405,7904.1966946672,1329.0288531827,-15343.4656937299,5978.6586724367,-18661.3167603192,-6100.3234729693
158242927802,6894,-2,0,-2917.6068472955,-9945.7415384077,24029.4004061807,-11232.6579928862,10065.7393644756,117.2479265859,13463.0454913188,20385.4672324333,-9446.2697515228,-11276.0723351505,7904.3548747259,1329.6859088111,-15341.7865515683,5980.7028455029,-18661.8278035858,-6101.2725533215
158242927802,6894,-2,0,-2908.5540808592,-9950.3287601100,24044.2814993951,-11231.6359063531,10068.1729038402,119.4624474076,13465.8805646785,20386.7935113870,-9444.6149447549,-11273.8943174191,7905.4134643495,1330.0752751094,-15340.5941172796,5976.0912884070,-18663.4947780505,-6102.8665216053
158242927802,6894,-2,0,-2906.9722802723,-9954.6239570885,24050.2315031415,-11236.1501218744,10066.1895692580,118.2456777254,13462.7534665950,20382.8268422227,-9446.3914284910,-11276.1575090282,7902.2620308724,1326.5709784244,-15342.9911535538,5971.3215512524,-18664.2005044663,-6107.0035385251
158242927802,6894,-2,0,-2915.5626742292,-9956.2179253723,24039.7551161770,-11244.4849941981,10062.0890554287,113.7923006882,13457.7160401103,20375.6479010972,-9450.1512468093,-11280.2701905544,7898.9524173365,1323.0666817394,-15346.5197856324,5972.5139855411,-18662.9837347840,-6109.6682641293
158242956384,6895,-2,0,-2919.7240265427,-9953.4436904967,24029.3152323029,-11244.8378574060,10062.2229000938,110.6286995142,13454.7227866919,20374.6988207450,-9450.4311038362,-11281.7303141731,7897.8938277130,1321.1928564287,-15346.2399286055,5971.1512034969,-18662.7160454539,-6109.8629472784
158242956384,6895,-2,0,-2912.1800545125,-9952.0687407557,24035.7519439222,-11237.1113699234,10068.6352763195,115.7999706639,13460.9891505557,20379.6145702614,-9446.5982793370,-11276.7415584757,7900.0231746570,1324.2834514217,-15340.9348127907,5974.6676678787,-18661.4992757716,-6105.8111042364
158242956384,6895,-2,0,-2907.9700314117,-9954.8064725408,24050.3410124129,-11229.5552301963,10072.2734176695,121.0807510851,13467.1825082386,20384.0314442082,-9438.8961272481,-11270.3778530373,7906.6789048191,1329.8805919603,-15334.4494303841,5981.2382241631,-18658.2505007198,-6099.3378895266
158242956384,6895,-2,0,-2915.8546989530,-9963.8349035835,24056.4370285212,-11232.9500176100,10078.7831354698,124.6458862542,13471.4290344298,20388.2414673089,-9435.7933645582,-11268.0051521568,7908.6987424917,1332.2532928407,-15330.6774443690,5981.7492674297,-18657.8246313310,-6093.6920782008
158242956384,6895,-2,0,-2930.4802705342,-9975.1751970224,24047.4207651754,-11240.1046233418,10076.0940744719,122.2975207674,13467.9734085321,20385.8931018221,-9436.9614634532,-11269.2462572328,7908.7230778854,1329.1748655445,-15332.4660958019,5973.8280967980,-18657.3135880645,-6093.2175380247
158242956384,6895,-2,0,-2945.3248606582,-9987.1360429994,24035.1557267779,-11246.5169995675,10071.6893682220,120.5453724249,13463.2888452552,20379.0305208139,-9439.9303814780,-11270.4873623087,7904.5130547846,1326.3641275784,-15335.2159952839,5973.3778920155,-18658.8102147737,-6095.4442265433
158242956384,6895,-2,0,-2953.9760930993,-9997.4907529957,24031.8582809389,-11248.1718063354,10071.3121696205,120.4358631535,13460.3929334114,20377.8380865253,-9440.0155553558,-11269.7207974089,7903.1381050436,1324.2712837249,-15338.6472857880,5973.2562150473,-18659.4429350085,-6097.8655982110
158242956384,6895,-2,0,-2957.5777313589,-10010.2059961757,24037.1512290569,-11245.7260992740,10069.6086920653,121.7986451976,13459.6993746925,20379.0061854203,-9441.3174989159,-11269.1002448709,7904.2210300609,1324.7093208105,-15342.3706010158,5977.0282010624,-18661.0734063828,-6099.8489327932
158243057832,6896,-2,0,-2973.2375571700,-10028.6400568624,24036.0318009492,-11253.1240589424,10064.4374209155,116.0676599940,13457.2049968437,20377.1931985937,-9444.1039014883,-11272.2516783481,7903.5274713420,1325.2203640771,-15348.2597662781,5980.2404730236,-18660.9882325050,-6102.1729628864
158243057832,6896,-2,0,-3003.5472899559,-10046.9402728841,24017.5125663846,-11268.0538229441,10058.0980508708,107.7936261544,13450.9629683736,20371.5473872678,-9448.4599369509,-11278.3355267595,7901.5806398503,1323.1761910108,-15353.5892174865,5980.0944606618,-18660.8300524463,-6103.7425957765
158243057832,6896,-2,0,-3024.8772624866,-10063.6100175316,23996.8883202698,-11276.6685522948,10053.0119535988,103.3645845109,13445.5361755905,20367.0940102306,-9451.6357058217,-11281.7303141731,7900.1326839284,1320.3289499543,-15357.2516942303,5978.9872002509,-18658.7493762896,-6103.6939249892
158243057832,6896,-2,0,-3032.9322777833,-10076.5564469512,23993.5543713403,-11277.1674278645,10054.4599095207,103.7296154156,13446.7286098792,20366.8628239910,-9451.2585072202,-11281.0489231510,7900.7045656791,1321.0833471573,-15356.9109987192,5981.9804536693,-18655.0503964554,-6104.4848252827
158243057832,6896,-2,0,-3041.0602992611,-10091.3523662879,23999.9059090818,-11275.2936025538,10054.2165555843,105.7737884818,13449.0648076692,20368.7853200890,-9449.0196510048,-11278.2016820945,7904.0750176990,1322.5678061697,-15354.2584408118,5985.6064273226,-18652.2396584893,-6102.1242920991
158243057832,6896,-2,0,-3053.5565238982,-10105.8927639913,24002.0717591163,-11281.1219293320,10055.2994806015,104.9342174011,13449.4785093612,20371.2066917568,-9450.3824330489,-11279.9659981338,7903.8316637625,1321.9472536317,-15355.2926950418,5983.7447697087,-18649.8061191247,-6103.8886081384
158243057832,6896,-2,0,-3074.0590930449,-10117.2208897335,23991.7292168168,-11288.8605845114,10051.9168608847,99.8724555227,13446.2297343095,20368.6149723335,-9456.8313123651,-11285.7578218215,7900.7897395568,1318.8201555482,-15359.1133518442,5979.5225789111,-18651.2175719562,-6105.1905516984
158243057832,6896,-2,0,-3085.6427404203,-10127.1618980378,23975.4001676804,-11293.9466817834,10047.4513161507,97.3050714931,13442.8227791990,20362.7258070712,-9458.7781438568,-11288.9092552987,7898.8064049747,1315.5957158901,-15360.2327799519,5980.0092867840,-18651.5947705577,-6105.1540486080
158243149640,6901,-2,0,-3254.5912108069,-10324.3272573568,23930.8177265212,-11343.9802511193,10031.9618380951,85.6119148462,13419.4242982085,20340.5197603693,-9469.0111768849,-11297.8525124635,7871.8427888150,1289.8975402001,-15380.1634673479,5970.2264585384,-18671.2212655331,-6121.6291101062
158243149640,6901,-2,0,-3257.8643212523,-10327.1988338070,23934.6262156268,-11347.4723801075,10029.7838203638,87.4857401570,13420.1178569274,20343.2818275481,-9468.1107673200,-11297.3293015001,7871.8184534214,1291.2359868506,-15382.5726713188,5976.2616361625,-18668.9337385304,-6119.0982291671
158243149640,6901,-2,0,-3269.8129995324,-10331.9685709616,23922.7262081339,-11355.6734077661,10022.2885191209,81.7060841661,13415.9808400076,20340.2520710392,-9470.3496235354,-11298.3635557301,7869.8229511424,1290.9439621269,-15385.2495646198,5982.6010062073,-18661.7791327985,-6116.3483296851
158243149640,6901,-2,0,-3274.8869291075,-10331.9564032647,23912.7121936486,-11357.3890530182,10024.2110152189,80.3433021219,13415.2629458951,20338.2322333666,-9469.8750833593,-11300.2008779504,7870.0906404725,1291.1386452760,-15385.3590738913,5981.9074474884,-18655.4154273601,-6115.7399448439
158243149640,6901,-2,0,-3272.0883588383,-10333.8910670596,23913.7586155754,-11354.5783150521,10022.9090716588,80.0026066108,13413.4742944621,20338.4025811221,-9468.5853074961,-11299.1666237204,7869.4579202377,1291.7226947235,-15383.8381117884,5980.6055039283,-18650.2684916040,-6114.4623366775
158243149640,6901,-2,0,-3265.7246533999,-10337.6873884683,23923.2129160068,-11350.8671675211,10026.6932253708,82.7160030024,13415.3359520760,20341.2011513914,-9469.8750833593,-11298.2540464587,7868.3263244332,1293.1219798582,-15384.1058011185,5979.3765665492,-18646.9588780681,-6114.9368768536
158243149640,6901,-2,0,-3271.2731231511,-10341.3376975152,23926.9240635378,-11354.0064333014,10022.8238977811,79.2603771046,13414.4720456016,20340.3859157043,-9471.6880701859,-11301.5879953882,7866.9878777827,1293.6451908215,-15387.6344331971,5980.0457898745,-18645.5960960240,-6115.0463861250
158243149640,6901,-2,0,-3290.8144442488,-10351.1083580641,23913.0285537660,-11363.2295474932,10016.6427077950,71.7042373776,13410.2133517135,20336.6504327796,-9476.5551489151,-11306.3942356332,7864.6516799927,1293.3409984010,-15392.0513071439,5983.2215587453,-18638.8308565904,-6115.2897400615
158243170977,6902,-2,0,-3303.6513643970,-10358.8956840307,23895.6409150061,-11371.0533765503,10012.3475108165,67.6888974260,13406.2710179429,20335.8230293957,-9479.7065823922,-11309.4848306263,7862.8630285597,1291.8322039949,-15396.6385288461,5990.4491706581,-18635.3265599054,-6115.8129510249
158243170977,6902,-2,0,-3300.3539185580,-10359.2850503291,23892.4043076512,-11369.0822096650,10006.9572211240,66.4842954406,13401.9393178739,20332.8906144613,-9480.6556627444,-11309.2049735993,7860.8918616744,1288.6686028210,-15398.9017204552,5988.2224821395,-18637.1273790352,-6118.2951611767
158243170977,6902,-2,0,-3295.9978830954,-10358.5671562165,23901.0068693050,-11364.1421247549,10010.7657102295,67.3968727023,13403.2412614340,20336.1880603004,-9483.1135375027,-11309.4483275358,7857.9716144369,1287.2814853831,-15402.1018247196,5979.7415974539,-18645.5839283272,-6124.1964941359
158243170977,6902,-2,0,-3292.7612757404,-10360.8303478256,23908.9402076335,-11364.7870126865,10009.4029281854,67.1535187658,13402.2921810818,20336.2732341781,-9485.1090397816,-11311.7236868417,7858.5313284907,1285.6388463121,-15402.8805573163,5971.6014082794,-18652.3491677607,-6126.8125489528
158243170977,6902,-2,0,-3301.0718126705,-10365.1985509850,23901.9437819603,-11372.9272018611,10004.0734769769,61.6415521050,13397.1574130225,20332.3065650138,-9489.1243797332,-11317.5520136199,7857.1563787497,1281.1733015780,-15406.6403756346,5963.2665359556,-18660.5136923289,-6129.8788085522
158243170977,6902,-2,0,-3311.5360319382,-10367.7659350147,23890.3844699785,-11378.3174915536,10003.8179553436,58.7943110485,13394.9428922008,20328.0600388226,-9490.7913541979,-11321.0928133953,7856.8521863292,1279.5793332942,-15407.5042821090,5958.6671465566,-18664.0544921044,-6131.8499754375
158243170977,6902,-2,0,-3309.2485049355,-10367.4860779877,23887.0991918363,-11373.6572636705,10007.1762396668,62.0309184034,13397.1452453257,20328.4980759083,-9488.2969763492,-11317.5033428326,7860.6485077379,1281.2828108494,-15404.3285132382,5962.2079463320,-18660.9395617177,-6128.3821818430
158243170977,6902,-2,0,-3295.9613800049,-10363.4220672489,23899.3885656275,-11361.2097098206,10012.7612125085,68.5163008100,13403.8618139720,20334.6792658943,-9482.9796928376,-11310.4217432816,7865.3209033179,1285.5780078279,-15399.7656269296,5963.6802376476,-18658.6398670182,-6123.6611154757
158243240049,6904,-2,0,-3310.8303055225,-10371.0147100664,23892.0392767465,-11369.1308804523,10009.5854436377,68.3337853576,13399.8221386268,20331.9050310187,-9481.7629231553,-11312.1495562305,7861.9382836012,1285.7118524930,-15403.5984514288,5978.9628648572,-18645.2310651193,-6119.6701109177
158243240049,6904,-2,0,-3305.8902206124,-10370.0777974110,23900.4836583416,-11364.4706525691,10010.5710270804,70.4509646048,13399.6639585681,20332.6229251312,-9481.8724324267,-11310.7016003085,7860.3808184078,1286.4784173928,-15404.8517242016,5979.7415974539,-18646.5208409825,-6121.9333025268
158243240049,6904,-2,0,-3306.4377669694,-10374.2026466340,23907.8694503131,-11362.5846595616,10009.1230711584,69.1855241352,13398.9095613650,20331.6251739918,-9482.9553574440,-11310.5920910371,7857.8134343782,1284.0935488155,-15407.0297419329,5976.3346423435,-18651.5947705577,-6124.8900528548
158243240049,6904,-2,0,-3316.5369553325,-10382.9633883465,23903.9636196329,-11369.2647251174,10004.0613092801,65.5230473915,13397.0114006607,20329.0456222653,-9485.4132322022,-11312.0643823527,7856.1464599134,1282.3535681699,-15409.2685981483,5977.0768718497,-18652.6655278781,-6124.6223635247
158243240049,6904,-2,0,-3331.7709117548,-10388.7430443374,23892.2582952893,-11375.6892690399,10004.8765449672,62.4689554890,13395.4296000737,20327.2691385291,-9484.6466673024,-11314.9116234093,7856.3533107594,1280.6744260083,-15408.9887411214,5983.3797388040,-18646.8737041904,-6121.8481286490
158243240049,6904,-2,0,-3336.3824688507,-10389.2662553008,23883.3028704276,-11375.2633996511,10005.5092652020,63.1868496015,13395.3444261959,20326.9041076245,-9483.8192639184,-11314.7291079569,7856.5601616054,1281.7695187224,-15408.2708470089,5986.5068368875,-18640.8141911726,-6120.0594772161
158243240049,6904,-2,0,-3327.1715223557,-10386.8935544203,23888.1091106727,-11369.2160543301,10005.9351345908,65.1580164869,13397.6076178050,20331.0289568474,-9481.6412461871,-11310.6164264308,7857.4849065640,1285.1278030455,-15407.3095989598,5987.1517248191,-18637.7357638764,-6119.1590676512
158243240049,6904,-2,0,-3318.5202899146,-10384.2653319066,23902.0411235349,-11363.1565413123,10006.9450534271,67.5672204578,13401.4039392137,20337.3318238017,-9480.7651720158,-11308.7912719073,7858.9085270922,1289.1431429971,-15405.3992705586,5989.2810717631,-18637.0178697638,-6117.5529316705
158243265090,6905,-2,0,-3328.1084350111,-10390.5073603767,23902.0776266254,-11368.4494894302,10002.0901423948,62.6636386382,13400.3331818933,20338.0497179143,-9484.7318411801,-11313.9503753603,7858.7138439431,1288.9119567574,-15409.1834242706,5983.7812727991,-18642.8218611483,-6121.3005822920
158243265090,6905,-2,0,-3341.5294046068,-10397.6984691991,23886.5759808730,-11377.4900881697,9996.1401386484,55.3873559380,13395.3079231054,20332.9149498550,-9489.2825597919,-11321.4943473905,7856.3898138499,1286.5149204833,-15413.7463105792,5975.0083633898,-18650.0738084548,-6123.4299292360
158243265090,6905,-2,0,-3342.0647832670,-10397.7836430769,23877.2798605002,-11376.2124800033,9996.9310389419,54.2800955271,13394.0546503327,20332.9271175518,-9489.4042367601,-11321.1049810922,7855.0635348962,1284.9087845027,-15412.9432425889,5972.7330040839,-18651.8259567973,-6123.8801340185
158243265090,6905,-2,0,-3332.7321598038,-10391.9796516923,23882.9743426134,-11369.3620666920,10001.6277699155,59.8163975816,13396.2326680640,20333.7180178453,-9486.7881819432,-11318.7809509990,7855.7205905246,1284.2030580869,-15409.3416043293,5971.6014082794,-18654.1864899810,-6124.4885188596
158243265090,6905,-2,0,-3319.3720286922,-10388.3050072518,23898.0987897643,-11363.2417151900,10004.2559924293,63.3571973571,13399.3719338443,20335.6405139433,-9485.3523937181,-11316.1040576979,7854.2239638154,1283.2783131284,-15408.2343439184,5968.4256394086,-18656.6443647392,-6125.0238975198
158243265090,6905,-2,0,-3320.3576121349,-10386.6745358775,23903.2700609140,-11365.3710621340,10003.7084460722,62.1039245843,13399.0190706364,20332.8541113709,-9486.3501448576,-11317.4425043485,7854.3943115709,1282.1102142334,-15408.6723810040,5967.8537576579,-18656.6808678297,-6124.7075374024
158243265090,6905,-2,0,-3329.1426892410,-10388.3536780391,23897.0280324439,-11369.2768928142,10004.0613092801,61.2035150194,13399.6761262649,20332.7324344026,-9485.5592445641,-11316.7976164168,7857.0955402656,1282.9984561015,-15403.9269792431,5970.6766633208,-18654.7948748221,-6121.3735884730
158243265090,6905,-2,0,-3323.8740765167,-10384.8980521414,23894.1199529032,-11366.3809809703,10010.4858532026,64.9389979440,13403.3751060991,20333.5476700898,-9479.9986071160,-11311.5898421766,7861.6584265742,1286.7582744198,-15398.1473232522,5974.5459909105,-18652.2639938829,-6116.3848327755
158243298769,6906,-2,0,-3313.5802050045,-10376.9647138128,23903.8541103615,-11355.2597060742,10017.6526266313,73.6145657788,13410.1160101390,20340.1547294646,-9474.2554542156,-11305.3113106160,7865.3695741052,1290.0313848651,-15391.8809593883,5978.4031508034,-18651.2419073498,-6113.0508838461
158243298769,6906,-2,0,-3303.0186441622,-10376.0643042479,23920.4265134344,-11346.3772873934,10022.7143885097,78.2747936620,13413.5473006430,20343.7442000274,-9470.8363314083,-11301.0647844248,7868.1194735872,1291.8322039949,-15389.7637801412,5978.7073432240,-18649.1855665867,-6112.9170391810
158243298769,6906,-2,0,-3309.5040265688,-10382.3793388990,23923.3954314592,-11350.2466149831,10021.0595817417,76.6564899845,13412.5495495036,20342.9776351276,-9472.6614859318,-11302.1477094420,7868.9833800616,1290.7736143713,-15393.2680768262,5980.2283053268,-18649.0638896185,-6114.2189827411
158243298769,6906,-2,0,-3324.6528091134,-10390.9332297655,23909.2687354477,-11358.3624687640,10015.0244041176,71.6190634998,13406.8915704809,20338.2930718507,-9475.9954348612,-11306.1143786063,7867.6936041984,1288.8511182733,-15396.6385288461,5984.5600053958,-18646.8858718872,-6113.5010886285
158243298769,6906,-2,0,-3336.6988289681,-10394.8512281425,23895.2028779204,-11364.7018388088,10009.2690835203,68.2364437831,13401.9393178739,20334.1803903246,-9476.1901180104,-11308.5965887582,7867.1338901446,1288.2670688258,-15399.3640929345,5987.4437495428,-18644.4279971290,-6112.7710268191
158243298769,6906,-2,0,-3332.0994395690,-10394.2915140887,23893.3533880033,-11361.8059269649,10012.2014984546,71.4122126538,13402.2921810818,20336.7234389606,-9476.5186458246,-11307.1242974426,7866.4768345161,1288.3400750067,-15400.2279994089,5984.2193098848,-18640.4248248742,-6113.0387161492
158243298769,6906,-2,0,-3322.8276545899,-10392.2838441129,23903.8419426647,-11356.8780097516,10013.2965911687,73.6510688693,13403.7279693069,20338.4877549999,-9474.9976837218,-11304.3135594765,7866.2821513670,1288.7172736083,-15400.8120488564,5984.5235023053,-18638.7335150158,-6113.0022130588
158243298769,6906,-2,0,-3324.3121136023,-10395.3136006218,23910.8262006411,-11359.6279092336,10013.2965911687,72.8845039694,13403.3264353118,20338.6337673618,-9475.4600562010,-11305.0192858922,7864.9437047164,1288.3765780972,-15400.7755457659,5987.5775942079,-18639.6704276712,-6113.7444425650
158243331367,6907,5,0,-3336.1512826111,-10403.5998021582,23901.6274218429,-11366.5999995131,10011.5931136135,68.8326609274,13402.2921810818,20334.0587133563,-9476.6281550960,-11307.3676513791,7864.9558724132,1287.1111376276,-15401.5907814531,5988.3563268046,-18640.0962970600,-6112.6736852445
158243331367,6907,5,0,-3345.8976077662,-10409.0144272444,23889.5205635041,-11371.5279167264,10011.2402504056,68.2486114799,13400.5765358298,20331.6373416886,-9476.4578073405,-11308.8399426946,7864.7855246577,1287.2328145959,-15400.6660364945,5991.3739156166,-18636.6041680718,-6110.2523135768
158243331367,6907,5,0,-3346.9318619962,-10407.8584960463,23888.1942845504,-11367.8897753764,10013.5886158925,70.7673247222,13402.8032243484,20333.7910240262,-9474.2189511251,-11306.8687758093,7866.9148716017,1289.3134907526,-15398.1594909490,5995.5231002333,-18634.0854548295,-6107.9526188772
158243331367,6907,5,0,-3341.4929015163,-10406.3497016402,23898.2934729135,-11362.2439640505,10014.8783917557,73.6510688693,13405.6504654049,20338.6459350586,-9472.6858213254,-11304.5325780193,7867.1825609318,1291.0534713983,-15398.4880187632,5996.8372114901,-18634.1706287072,-6108.4879975375
158243331367,6907,5,0,-3342.1134540543,-10408.9414210635,23904.4138244154,-11362.2196286569,10011.6539520976,71.0106786587,13404.7622235369,20338.9136243887,-9476.6889935801,-11307.9151977361,7863.8972827897,1290.6276020095,-15402.0044831450,5992.6271883894,-18634.8276843357,-6113.1482254206
158243331367,6907,5,0,-3355.1450573517,-10414.3073753624,23895.9207720330,-11370.3719855283,10005.6066067766,64.2211038315,13400.7225481917,20336.5530912050,-9483.7705931311,-11312.3807424701,7859.4195703588,1287.2449822927,-15406.1171646712,5989.0255501298,-18634.6208334897,-6116.4335035628
158243331367,6907,5,0,-3361.6304397583,-10417.8481751379,23884.8968387114,-11376.7600263603,10000.4353356269,59.4148635864,13395.9406433402,20332.6715959185,-9487.2748898161,-11315.7633621869,7856.3654784563,1284.3369027520,-15411.3614420019,5986.6163461589,-18633.2458837487,-6117.7719502134
158243331367,6907,5,0,-3356.1184730975,-10418.8702616710,23880.7841571852,-11375.7136044335,9997.6976038417,59.9745776403,13392.7892098631,20331.0046214538,-9489.7327645743,-11316.8219518105,7852.8490140744,1283.4364931871,-15414.0748383934,5986.7380231271,-18634.6573365802,-6120.6191912699
158243450155,6909,5,0,-3344.1576271206,-10405.6318075277,23904.0487935107,-11363.0470320408,10007.2127427572,65.6082212693,13403.0465782848,20336.7721097479,-9485.3767291117,-11313.8408660889,7858.9571978795,1286.0647157009,-15402.9900665877,5981.6154227646,-18644.6591833686,-6114.3041566188
158243450155,6909,5,0,-3342.4176464749,-10405.6926460118,23900.9095277304,-11360.2727971652,10008.4051770459,66.2652768977,13402.8275597420,20338.5850965745,-9482.7241712043,-11311.1153020005,7860.2104706523,1287.4274977450,-15402.4303525338,5985.9227874400,-18640.0476262727,-6111.5907602273
158243450155,6909,5,0,-3333.2675384640,-10404.5367148136,23908.4291643670,-11353.2398684016,10012.4813554816,70.5969769667,13404.6648819623,20341.4688407215,-9480.2662964461,-11307.4163221664,7862.9603701343,1289.4473354176,-15401.3474275166,5986.5798430684,-18638.8308565904,-6111.1770585353
158243450155,6909,5,0,-3331.9777626008,-10408.0896822859,23916.8248751748,-11352.8018313159,10010.0721515106,71.0228463555,13404.2511802703,20343.1723182767,-9480.2906318397,-11308.0368747043,7863.1793886771,1290.5424281317,-15404.8030534143,5987.0422155477,-18640.0354585759,-6112.0896357970
158243450155,6909,5,0,-3346.6763403629,-10415.5849835288,23911.2033992426,-11363.5945783979,10006.0324761654,66.6668108929,13400.4183557711,20340.3372449170,-9484.2086302167,-11311.6750160544,7861.4880788187,1286.8677836912,-15407.6746298645,5986.7136877335,-18640.0597939695,-6112.1139711907
158243450155,6909,5,0,-3361.1437318854,-10422.3623906592,23897.2227155930,-11370.9195318853,10002.2483224535,64.4766254648,13394.9428922008,20334.7036012880,-9485.0968720848,-11313.3054874287,7860.9648678553,1284.7627721408,-15409.9256537768,5988.7578607997,-18635.5334107514,-6111.0188784766
158243450155,6909,5,0,-3359.1117265160,-10421.4863164879,23890.3236314944,-11371.4062397582,10002.7958688105,64.8903271567,13393.2150792519,20331.9902048964,-9484.5006549405,-11312.4172455606,7860.4659922856,1284.1300519060,-15409.2685981483,5989.5244256996,-18631.2503814697,-6111.5177540464
158243450155,6909,5,0,-3347.4672406564,-10417.0329394507,23899.6440872608,-11362.6333303489,10006.9815565176,69.2828657098,13396.9383944797,20334.3385703833,-9482.4199787838,-11308.2315578535,7860.4781599824,1284.3977412361,-15406.3361832140,5992.9678839004,-18626.7483336452,-6111.5664248337
158243460134,6910,5,0,-3337.7574185917,-10414.5994000862,23916.9222167494,-11355.1258614091,10010.9117225914,73.4563857201,13399.9924863823,20339.4490030489,-9479.4145576685,-11306.1387139999,7862.0721282662,1286.8069452071,-15403.8539730621,5994.6226906684,-18625.3612162074,-6111.6759341051
158243460134,6910,5,0,-3340.8480135847,-10417.8603428347,23919.4287622949,-11357.8270901038,10011.4227658580,74.1499444390,13403.3142676149,20339.3273260807,-9480.3393026270,-11307.5014960441,7863.5809226723,1288.1088887671,-15402.3573463529,5988.9282085552,-18628.3179665354,-6113.4402501444
158243460134,6910,5,0,-3350.8255249795,-10418.5660692504,23910.1569773158,-11362.7793427107,10010.3763439312,72.8601685758,13403.0830813753,20337.6603516159,-9481.0936998301,-11309.4848306263,7863.5809226723,1287.9872117989,-15401.6516199372,5978.6221693462,-18632.4671511520,-6113.4524178412
158243460134,6910,5,0,-3353.4172444028,-10419.5273172995,23903.9027811488,-11362.1101193855,10011.9094737309,74.6609877056,13404.7743912337,20340.6657727312,-9480.8016751063,-11308.6939303328,7863.9216181833,1289.2526522685,-15400.1428255311,5974.2052953995,-18637.4194037590,-6113.9999641983
158243460134,6910,5,0,-3344.8390181426,-10416.4367223064,23909.3782447192,-11354.7851658981,10014.2578392177,78.7371661413,13407.7798123490,20344.8636281351,-9477.6989124165,-11305.2869752223,7866.2456482765,1292.3554149583,-15398.2324971299,5974.9718602993,-18641.3739052264,-6114.0729703792
158243460134,6910,5,0,-3337.1125306601,-10413.5651458562,23919.6599485345,-11349.4678823864,10016.8252232474,79.9174327331,13411.8803261783,20350.5094394610,-9476.5551489151,-11302.8412681609,7867.0730516604,1294.7159481420,-15396.2978333351,5975.3855619913,-18642.2864824881,-6112.9900453619
158243460134,6910,5,0,-3340.7750074038,-10416.6557408492,23921.9474755373,-11350.2101118926,10014.1239945527,77.3500487034,13412.5130464131,20351.2760043608,-9478.1247818053,-11305.9561985476,7867.5475918365,1295.7988731592,-15397.7457892570,5977.0403687592,-18638.6361734413,-6111.2865678067
158243460134,6910,5,0,-3349.2802274830,-10418.4200568886,23912.2254857757,-11355.2353706805,10011.3862627675,72.0814359791,13410.1281778358,20349.3048374755,-9478.9035144019,-11308.5235825772,7866.9757100859,1294.5699357801,-15398.4758510664,5977.8312690527,-18637.0787082479,-6111.0310461735
158243540126,6912,5,0,-3323.3995363406,-10405.8386583736,23942.0241752951,-11334.8179754116,10025.5372941726,89.7245963724,13421.6631544239,20359.0633303275,-9466.1882712219,-11291.7929994457,7871.0275531279,1299.2423313601,-15385.5537570404,5984.9615393909,-18639.5244153093,-6098.3888091744
158243540126,6912,5,0,-3335.0926929875,-10410.9004202520,23934.8939049569,-11342.4714567133,10023.0185809302,86.3541443524,13418.6577333087,20355.4981951584,-9467.7214010216,-11295.8326747909,7870.8815407660,1296.6384442400,-15387.4762531384,5986.3486568288,-18636.0687894116,-6098.1697906316
158243540126,6912,5,0,-3342.7340065923,-10411.8616683010,23924.0889901781,-11348.5796405184,10018.7233839517,82.8498476674,13413.1457666479,20350.2660855245,-9471.0188468607,-11300.0913686789,7866.8540331176,1292.9394644058,-15391.8079532074,5987.0787186381,-18631.9317724918,-6100.2504667883
158243540126,6912,5,0,-3337.2220399315,-10409.6106443888,23923.7361269702,-11345.2700269825,10020.2808491451,83.6894187482,13411.5396306672,20348.9154711772,-9469.8385802688,-11297.0616121700,7865.3209033179,1291.7348624203,-15393.6817785181,5990.7655307755,-18626.2859611660,-6101.1022055659
158243540126,6912,5,0,-3330.2012788646,-10408.1261853764,23931.6938006924,-11341.3885316960,10018.4435269248,84.2126297116,13411.0894258848,20349.7550422579,-9471.9070887287,-11296.8060905367,7863.8729473960,1290.6641050999,-15395.7624546749,5990.9845493183,-18626.5779858897,-6105.2635578794
158243540126,6912,5,0,-3331.9290918135,-10413.7354936117,23936.1471777296,-11344.9536668651,10014.5498639415,80.9395192662,13407.9014893172,20347.2484967124,-9477.2243722404,-11301.5758276913,7858.9085270922,1286.8069452071,-15401.6637876340,5986.6771846430,-18632.4914865457,-6110.1428043054
158243540126,6912,5,0,-3344.6199995998,-10422.4353968401,23922.6897050435,-11355.0163521377,10006.5921902193,72.8358331821,13400.6373743139,20341.6270207802,-9484.4154810627,-11309.1806382057,7856.3046399721,1282.7916052555,-15406.2145062458,5978.4761569843,-18631.6640831617,-6114.6813552203
158243540126,6912,5,0,-3349.8156061432,-10425.3678117745,23908.7455244844,-11359.6522446272,9998.2694855924,67.3116988245,13394.1884949977,20336.8086128383,-9489.9517831172,-11313.4393320937,7852.5326539570,1278.9222776658,-15409.6701321435,5975.6775867150,-18630.6054935381,-6118.2586580863
158243575415,6915,5,0,-3331.7465763612,-10416.2055360668,23924.2715056304,-11345.0753438334,10014.0023175844,85.9647780541,13403.3872737959,20346.3115840570,-9475.3870500201,-11297.6213262239,7862.2546437186,1287.9628764052,-15403.6592899130,5999.0760677056,-18617.3670393948,-6102.3311429450
158243575415,6915,5,0,-3325.2855293482,-10415.1347787464,23936.0498361550,-11339.4903709916,10015.9126459856,89.9801180057,13406.7455581190,20349.7428745611,-9474.2919573060,-11294.7740851673,7862.5953392296,1288.9606275447,-15402.2843401720,5999.8913033927,-18618.9366722849,-6103.6209188083
158243575415,6915,5,0,-3331.4910547279,-10420.6589131040,23935.5509605853,-11343.1528477353,10014.4525223669,86.7678460444,13407.8528185299,20350.6311164292,-9475.1071929932,-11296.0395256369,7863.4592457040,1290.6641050999,-15401.7002907245,6001.9719795494,-18617.9389211454,-6103.0977078449
158243575415,6915,5,0,-3341.3590568513,-10422.0825336323,23926.6198711173,-11346.5232997553,10013.7102928607,85.1860454574,13406.8915704809,20350.8988057593,-9476.1657826168,-11298.4000588206,7863.6539288532,1290.9439621269,-15400.8850550373,6000.1468250260,-18618.4256290183,-6102.7205092434
158243575415,6915,5,0,-3338.7551697312,-10419.7950066296,23920.2074948916,-11346.4381258775,10012.4448523911,82.5334875500,13406.2831856397,20348.5261048788,-9477.3825522991,-11300.6389150360,7863.2767302517,1289.5568446890,-15401.4082660007,5992.3351636657,-18621.8204164319,-6106.2613090189
158243575415,6915,5,0,-3331.4180485469,-10418.2862122235,23923.4562699433,-11341.6805564198,10011.4592689484,81.6695810756,13404.6527142655,20349.3900113533,-9480.9233520745,-11303.2793052466,7862.1938052344,1287.1841438086,-15402.7345449544,5983.6960989214,-18624.2661234934,-6108.9868731072
158243575415,6915,5,0,-3327.2445285367,-10416.0960267954,23934.0786692697,-11335.2316771036,10010.5710270804,78.4694768112,13405.4801176494,20349.6090298961,-9484.2451333072,-11306.2968940586,7860.2713091364,1286.3689081214,-15403.3672651892,5977.3202257861,-18625.2030361487,-6110.7390214497
158243575415,6915,5,0,-3332.4644704737,-10416.8504239984,23935.4049482234,-11336.2294282431,10010.0478161170,76.2184528989,13405.7234715859,20348.4287633042,-9484.0626178549,-11307.9638685234,7862.6075069264,1288.5590935496,-15401.8097999959,5978.6221693462,-18621.7960810383,-6107.0035385251
158243606346,6916,5,0,-3342.9165220446,-10419.2474602725,23925.9141447015,-11340.4516190406,10009.5732759409,74.4054660723,13405.2489314098,20349.5116883215,-9483.2352144709,-11308.6452595455,7863.2888979485,1287.6343485910,-15399.8386331106,5983.0755463834,-18618.0484304168,-6105.3487317571
158243606346,6916,5,0,-3345.2283844410,-10417.6413242919,23920.0614825297,-11340.9504946104,10010.8873871978,76.7538315591,13405.8816516446,20347.0294781696,-9481.5682400061,-11307.1729682299,7862.2789791122,1285.2251446201,-15398.7070373060,5986.6528492493,-18619.6910694879,-6105.1540486080
158243606346,6916,5,0,-3335.1900345620,-10416.7409147270,23923.9673132099,-11336.3511052113,10013.9049760099,80.7570038139,13404.8352297178,20345.7762053968,-9479.3415514875,-11304.8732735304,7861.3298987600,1282.5847544095,-15399.7656269296,5984.7790239386,-18627.6365755133,-6106.9670354346
158243606346,6916,5,0,-3325.0300077149,-10417.8238397442,23934.9304080473,-11334.7814723212,10014.1604976431,81.9007673152,13406.4048626080,20345.8857146682,-9479.1833714288,-11303.1089574910,7860.2348060459,1280.7717675829,-15401.8949738736,5982.6983477819,-18635.1075413626,-6109.2545624373
158243606346,6916,5,0,-3328.9358383951,-10420.2817145025,23935.2346004679,-11339.7458926249,10011.4714366453,79.7227495839,13406.2831856397,20345.3868390985,-9481.3492214633,-11305.0071181954,7859.1762164224,1280.6865937051,-15403.4281036733,5979.1575480064,-18637.4924099399,-6111.0067107798
158243606346,6916,5,0,-3339.3270514818,-10422.6665830798,23926.6563742077,-11346.8883306600,10007.2735812414,74.8678385516,13402.1461687199,20344.3404171717,-9480.8868489841,-11306.8322727189,7860.9040293712,1282.1102142334,-15403.3185944019,5984.6208438799,-18634.9858643944,-6106.1396320506
158243606346,6916,5,0,-3343.7317577318,-10421.9365212704,23914.7563667149,-11349.1028514818,10009.0865680680,76.1089436275,13402.8032243484,20344.9244666192,-9481.3127183729,-11305.9927016381,7863.2280594644,1284.0327103314,-15402.2235016878,5983.8056081928,-18630.4473134794,-6102.9273600894
158243606346,6916,5,0,-3338.7795051248,-10419.4786465122,23918.0294771603,-11343.2988600972,10012.1649953642,78.0436074223,13404.7257204464,20348.0880677932,-9480.1567871747,-11305.1652982541,7863.7877735182,1286.1012187913,-15400.3253409835,5982.3454845740,-18627.9042648434,-6102.4771553069
158243638904,6917,5,0,-3328.5464720967,-10419.4543111185,23930.6960495529,-11335.9252358225,10013.1749142005,79.7592526744,13409.0087497281,20351.8113830210,-9479.5484023335,-11304.8002673494,7866.0022943400,1288.4374165813,-15400.2158317121,5980.1552991459,-18628.5248173814,-6102.7691800307
158243638904,6917,5,0,-3330.9556760677,-10424.4308991191,23935.2589358616,-11338.9306569378,10011.7026228849,79.2847124983,13409.9943331707,20352.9551465224,-9478.4533096195,-11306.7227634474,7867.6936041984,1290.2260680143,-15400.2158317121,5984.9128686037,-18628.7925067115,-6100.0557836392
158243638904,6917,5,0,-3344.4496518443,-10424.8689362047,23928.0191562519,-11346.3042812125,10009.9139714519,76.5104776227,13410.4445379532,20352.2859231971,-9478.9156820987,-11307.9151977361,7867.8396165603,1292.4649242297,-15399.8508008074,5991.6051018563,-18624.1201111315,-6096.8313439811
158243638904,6917,5,0,-3350.1076308670,-10425.4894887427,23920.2196625884,-11347.9104171931,10010.1086546011,77.1553655543,13408.8870727598,20351.5680290846,-9478.8426759178,-11306.4429064205,7867.8152811666,1292.0998933250,-15399.4127637217,5993.0530577782,-18623.9010925887,-6097.0746979175
158243638904,6917,5,0,-3343.3545591302,-10422.9221047131,23920.7185381581,-11344.0167542098,10013.1870818973,81.3167178677,13409.1790974836,20351.9330599892,-9476.3726334627,-11303.4131499116,7867.3042379001,1290.8831236427,-15399.4005960249,5994.4280075192,-18623.7550802268,-6098.4253122649
158243638904,6917,5,0,-3335.3482146207,-10421.5228195784,23932.5333717732,-11337.8233965269,10015.2434226604,85.0156977019,13409.6779730533,20354.6707917744,-9476.5064781278,-11300.3712257059,7864.8706985355,1290.3842480730,-15398.2568325236,5990.7533630787,-18623.1466953856,-6102.3068075514
158243638904,6917,5,0,-3336.7474997554,-10426.8157676964,23936.7677302676,-11338.0545827665,10012.5543616625,84.3586420735,13407.7311415617,20353.2593389429,-9479.8039239668,-11302.2815541071,7861.3177310632,1288.9241244542,-15402.0653216292,5986.6893523398,-18622.8911737524,-6107.8917803931
158243638904,6917,5,0,-3349.7669353559,-10434.6760998440,23924.5148595669,-11347.3993739265,10004.4628432753,77.0823593733,13401.4769453947,20348.0515647027,-9487.7737653858,-11309.4483275358,7855.6110812532,1283.8136917886,-15407.2122573853,5983.2823972294,-18621.8812549161,-6113.8174487459
158243671343,6918,5,0,-3359.5497636016,-10438.0343841671,23911.1912315458,-11351.1956953353,10000.4353356269,72.3126222187,13396.6098666655,20343.4035045164,-9493.4074090149,-11313.9747107539,7851.4010581525,1279.6158363847,-15409.2929335420,5982.0777952439,-18622.1002734589,-6118.7697013528
158243671343,6918,5,0,-3355.3032374104,-10434.6152613599,23910.7288590665,-11348.5431374279,9998.1478086241,69.7817412796,13393.1664084646,20340.5684311566,-9496.5101717047,-11318.8052863926,7846.5096440297,1275.4058132840,-15413.6124659141,5977.4540704512,-18627.1011968531,-6124.2451649232
158243671343,6918,5,0,-3345.7272600107,-10433.8608641569,23919.3557561140,-11345.0996792270,9997.8679515972,69.5627227368,13392.2294958092,20339.9600463155,-9497.7391090838,-11321.4821796937,7843.3582105525,1272.9601062225,-15415.4497881344,5975.6167482309,-18631.8344309172,-6127.1532444639
158243671343,6918,5,0,-3345.7394277075,-10434.2258950616,23927.1552497775,-11344.8928283810,9996.6025111276,68.0417606339,13393.4584331884,20342.0528901690,-9497.3619104823,-11321.1779872731,7846.4974763328,1275.3449747998,-15412.7607271365,5977.5879151162,-18630.1552887557,-6121.8116255586
158243671343,6918,5,0,-3352.6263441093,-10432.4129082350,23923.3710960655,-11349.0785160881,9997.9652931718,67.0683448881,13396.0136495212,20343.3791691227,-9494.1374708242,-11320.2654100114,7850.0382761083,1278.3625636119,-15411.6899698161,5980.6176716252,-18624.9596822123,-6116.7255282866
158243671343,6918,5,0,-3355.8142806769,-10433.7270194918,23913.3570815803,-11353.1181914333,9999.3280752160,67.9809221498,13397.0479037511,20343.0993120958,-9490.8521926821,-11317.0044672628,7854.0779514535,1280.7109290988,-15408.3803562803,5982.1873045153,-18620.1777773609,-6110.7633568433
158243671343,6918,5,0,-3350.4483263780,-10434.3110689393,23912.2254857757,-11347.3385354424,10005.1929050846,75.0868570944,13401.7689701184,20348.3314217297,-9483.0770344122,-11310.0323769833,7859.1397133319,1285.5780078279,-15402.9170604068,5985.3752410829,-18616.1989404997,-6105.1175455175
158243671343,6918,5,0,-3337.2585430219,-10428.0325373787,23926.4495233617,-11337.0933347175,10012.5543616625,82.1684566453,13407.9866631949,20354.4152701411,-9479.1347006416,-11303.6686715449,7862.8508608629,1288.5469258527,-15399.2302482694,5984.9737070878,-18616.5396360108,-6102.6231676688
158243783912,6920,5,0,-3361.7642844234,-10434.1407211838,23912.2011503821,-11351.1348568512,10001.7981176710,70.1467721843,13394.6386997802,20339.9113755282,-9492.5313348436,-11315.9215422456,7853.1410387982,1275.2232978316,-15409.9378214736,5983.2945649262,-18623.7185771363,-6112.3086543399
158243783912,6920,5,0,-3351.6772637571,-10430.5877537115,23919.7816255028,-11344.1992696621,10001.9562977297,71.0228463555,13395.3687615896,20340.2399033424,-9492.8841980515,-11317.4790074389,7850.5249839812,1272.3273859878,-15411.2154296400,5977.5392443290,-18629.4008915526,-6116.0684726582
158243783912,6920,5,0,-3346.8831912089,-10433.3011501030,23930.9759065799,-11340.0744204391,9999.5470937588,70.9376724778,13396.2691711545,20341.3228283596,-9493.6385952545,-11318.4889262752,7850.2329592575,1272.0718643545,-15412.0550007208,5975.3247235072,-18631.8831017045,-6118.3316642672
158243783912,6920,5,0,-3354.4880017232,-10437.6693532625,23932.1926762622,-11343.3718662781,9998.2329825019,68.9665055924,13397.4007669590,20341.9555485944,-9493.9671230687,-11319.7787021385,7850.8900148859,1273.7510065160,-15411.7751436939,5978.8776909795,-18629.8754317287,-6118.0396395435
158243783912,6920,5,0,-3361.6669428488,-10440.8329544364,23921.3269229993,-11348.2876157946,9997.2352313624,66.8614940421,13396.6463697560,20340.4102510979,-9494.5998433035,-11319.2311557814,7850.9265179764,1273.5441556700,-15410.6800509798,5982.4184907550,-18627.8434263593,-6118.3438319640
158243783912,6920,5,0,-3362.0806445407,-10441.5386808522,23915.6202731893,-11347.7157340439,9999.1455597636,67.5793881546,13397.5832824113,20340.9091266677,-9495.0013772987,-11318.0265537960,7850.8170087050,1272.5585722274,-15409.6336290530,5982.7470185692,-18627.2837123054,-6119.1712353480
158243783912,6920,5,0,-3356.5686778800,-10439.6405201478,23921.3999291802,-11342.2889412609,10002.9662165660,71.8380820426,13399.3841015411,20344.2065725067,-9493.7724399196,-11314.8507849252,7850.6344932526,1274.0795343303,-15408.2221762216,5980.3864853855,-18628.1962895672,-6120.6921974509
158243783912,6920,5,0,-3347.7836007738,-10438.7036074924,23933.8353153333,-11338.3587751871,10002.4795086931,73.5050565074,13400.0168217759,20346.0803978174,-9494.5390048194,-11313.4028290032,7849.8192575655,1274.0551989366,-15409.1834242706,5978.0624552923,-18631.4937354062,-6124.0261463804
158243830322,6922,5,0,-3366.8017109081,-10444.9456359626,23923.8821393321,-11346.2069396379,10004.9617188450,78.8831785031,13399.8829771109,20345.8127084873,-9482.0306124854,-11308.6087564550,7863.1428855866,1280.8812768543,-15408.5628717326,5986.8110293080,-18624.3026265838,-6102.7813477275
158243830322,6922,5,0,-3359.5619312984,-10447.8172124128,23933.3486074603,-11343.4083693686,10002.0901423948,78.5424829921,13399.3719338443,20346.6887826586,-9483.3690591359,-11306.6132541760,7862.8995316502,1281.0029538225,-15411.3857773955,5990.1571459343,-18622.6356521191,-6102.2824721578
158243830322,6922,5,0,-3366.0108106146,-10450.3480933520,23935.2711035584,-11346.9126660536,9998.4885041352,75.5492295736,13398.6297043381,20346.6279441744,-9485.8391015910,-11309.0832966311,7862.1207990535,1280.7474321892,-15414.9752479583,5993.3329148051,-18621.6865717669,-6101.9904474340
158243830322,6922,5,0,-3376.3655206109,-10454.2660917290,23923.9186424226,-11355.0893583186,9991.4434076747,68.8083255337,13394.6386997802,20342.4665918610,-9492.2514778167,-11316.0797223043,7858.5799992780,1278.2773897342,-15419.4894634796,5986.8353647017,-18625.9452656549,-6105.7137626618
158243830322,6922,5,0,-3381.7923133939,-10454.0957439734,23912.1038088075,-11357.6445746515,9987.8417694151,63.8804083204,13391.5724401808,20340.2885741297,-9495.6827683208,-11320.2775777082,7857.1807141434,1276.2210489711,-15419.6111404478,5980.5081623538,-18627.3688861832,-6108.1594697232
158243830322,6922,5,0,-3375.1000801413,-10450.9686458899,23912.7243613455,-11352.2056141716,9990.2144702956,64.4766254648,13394.1154888168,20342.6612750102,-9495.1838927510,-11319.7300313512,7856.0612860357,1276.2940551520,-15418.8202401543,5983.6474281341,-18624.5581482171,-6108.8530284421
158243830322,6922,5,0,-3359.7444467507,-10445.3228345641,23931.4626144528,-11340.4394513438,9995.2153936898,69.6113935241,13398.7392136095,20347.7717076758,-9491.2780620709,-11315.9945484265,7856.7305093609,1279.9321965021,-15415.3767819534,5988.4780037728,-18620.5793113560,-6108.2324759042
158243830322,6922,5,0,-3355.1693927453,-10444.2034064564,23940.4667101018,-11338.4804521553,9994.7408535137,70.6091446635,13400.5643681330,20348.9763096613,-9491.6795960660,-11315.5443436441,7855.6475843437,1280.2607243163,-15414.6588878409,5992.3229959688,-18619.7884110625,-6109.3762394055
158243893859,6925,5,0,-3367.1302387223,-10461.2746850990,23930.2945155578,-11352.8139990128,9999.1820628541,70.4022938175,13400.2115049251,20342.9167966434,-9480.8990166809,-11310.6164264308,7861.2568925791,1282.2318912016,-15403.3794328860,5998.7718752850,-18603.2281756865,-6094.2152891641
158243893859,6925,5,0,-3360.3893346824,-10457.9407361695,23928.4206902471,-11349.2245284500,10003.8179553436,74.2472860136,13401.5986223629,20344.5716034114,-9480.0107748128,-11308.4627440931,7860.8675262807,1282.0858788398,-15403.6106191257,5999.2342477643,-18605.1385040877,-6094.5803200688
158243893859,6925,5,0,-3351.5555867889,-10454.4851102718,23934.9547434410,-11343.4813755496,10003.9518000087,75.3545464245,13402.7545535611,20346.5062672062,-9479.4145576685,-11309.1197997216,7859.4195703588,1281.6721771478,-15404.0364885145,5997.7741241455,-18608.9348254965,-6096.3203007145
158243893859,6925,5,0,-3351.5555867889,-10453.9618993084,23942.5717216521,-11339.8675695931,10003.4529244390,76.1332790211,13403.1195844658,20348.3800925169,-9480.1446194779,-11310.2392278293,7859.1518810287,1281.6235063605,-15406.1536677617,5998.5041859549,-18610.8938246849,-6098.7173369886
158243893859,6925,5,0,-3360.6935271029,-10457.1985066633,23939.1160957544,-11343.8707418479,10000.5205095046,71.1201879301,13399.8951448077,20345.2286590398,-9485.9972816497,-11316.9922995660,7857.2658880212,1278.5572467611,-15409.8039768085,5992.9557162036,-18614.1182643430,-6103.4140679623
158243893859,6925,5,0,-3380.8432330417,-10461.8100637592,23921.1322398501,-11350.9401737020,9993.0373759585,62.6271355477,13394.4561843278,20341.2133190882,-9492.1054654548,-11324.5241038994,7854.3943115709,1275.5639933427,-15413.7219751855,5986.0079613177,-18616.6978160695,-6108.7678545644
158243893859,6925,5,0,-3390.7234028620,-10465.9714160726,23911.2033992426,-11352.7044897413,9991.1757183446,60.4856209068,13392.3268373838,20337.8672024619,-9496.4858363111,-11327.1644941100,7850.7805056145,1273.3129694304,-15415.6931420708,5982.1751368185,-18619.1921939182,-6114.7786967949
158243893859,6925,5,0,-3370.6223677105,-10462.2967716321,23921.4120968770,-11346.1095980633,9990.5673335035,61.9092414351,13387.3867524737,20333.3043161533,-9500.1361453580,-11327.9188913130,7844.8913403522,1267.9956859188,-15420.2560283794,5975.6654190182,-18621.4067147400,-6123.3812584487
158243925204,6926,5,0,-3346.8953589057,-10456.9429850300,23939.9556668352,-11342.6904752561,9984.6538328475,61.5077074400,13386.3281628501,20335.3728246132,-9504.2853299746,-11329.6710396555,7840.6083110705,1263.9803459672,-15423.0545986487,5973.0250288076,-18621.8812549161,-6129.5381130411
158243925204,6926,5,0,-3344.8146827490,-10457.7825561108,23944.7375716866,-11346.5841382394,9986.9900306375,61.5807136209,13386.1213120041,20333.8275271167,-9506.7067016423,-11331.8733927805,7839.4037090851,1263.1407748864,-15422.4097107171,5972.3801408760,-18622.5991490286,-6130.7548827234
158243925204,6926,5,0,-3351.0323758255,-10460.0579154167,23937.8384875880,-11350.6968197656,9986.5763289455,61.6902228923,13387.1190631436,20332.6107574344,-9507.8748005373,-11332.8954793136,7841.2166959117,1263.6274827593,-15420.8157424333,5976.1034561038,-18624.6676574885,-6130.1951686696
158243925204,6926,5,0,-3354.7800264470,-10458.6221271916,23929.1020812691,-11350.1979441958,9989.7642655131,63.0408372397,13388.3723359164,20332.9879560359,-9506.0009752266,-11332.2019205947,7842.0684346893,1264.1506937227,-15417.7981536212,5977.2593873020,-18624.1322788283,-6128.9418958968
158243925204,6926,5,0,-3350.4726617717,-10453.5725330100,23935.8551530059,-11343.6273879114,9993.7431023742,67.1535187658,13392.2538312029,20336.6991035669,-9504.5895223952,-11330.1334121348,7844.3194586015,1266.4382207254,-15415.0725895329,5977.0038656687,-18627.1255322468,-6128.7350450508
158243925204,6926,5,0,-3343.6344161572,-10451.0538197677,23949.1179425429,-11337.2636824730,9996.7120203990,70.2562814557,13395.0158983817,20338.3052395476,-9502.6913616908,-11327.9797297971,7843.5528937017,1268.0078536156,-15417.4696258070,5981.2260564663,-18630.8731828682,-6129.8301377649
158243925204,6926,5,0,-3352.0544623586,-10456.1399170397,23949.0084332715,-11343.5908848210,9991.9544509413,68.3094499640,13392.0348126601,20335.2146445545,-9504.7111993634,-11330.9973186092,7842.2266147480,1267.8131704664,-15420.2316929858,5982.5645031168,-18630.2404626334,-6128.7350450508
158243925204,6926,5,0,-3365.7674566781,-10462.5401255686,23933.8718184237,-11352.2056141716,9986.3573104027,61.2765212003,13385.1113931678,20329.9095287397,-9506.8770493979,-11334.1974228736,7840.8638327038,1266.9614316888,-15424.1861944533,5983.8786143737,-18623.3900493221,-6124.8413820675
158243954626,6927,5,0,-3370.5615292263,-10465.4117020188,23922.5193572879,-11354.4201349934,9984.4956527888,58.5387894152,13383.7121080332,20328.5102436051,-9507.0595648502,-11334.5137829910,7839.9390877453,1265.9393451557,-15425.8044981307,5983.0147078993,-18616.8316607345,-6121.9454702236
158243954626,6927,5,0,-3360.9977195235,-10464.3044416079,23925.2935921636,-11349.8694163816,9987.5254092977,60.9601610829,13383.9311265760,20328.1938834877,-9503.9568021604,-11330.6687907950,7840.1824416817,1265.3066249209,-15424.3443745120,5982.7713539628,-18616.7099837663,-6119.3659184972
158243954626,6927,5,0,-3351.3000651556,-10460.7271387419,23938.2035184927,-11342.4106182291,9991.8206062762,64.5496316457,13387.1312308404,20329.3376469890,-9499.0775557344,-11325.5948612198,7840.9611742784,1265.8298358843,-15420.0735129271,5983.5987573468,-18620.3846282068,-6116.9567145262
158243954626,6927,5,0,-3348.3676502213,-10459.0844996708,23945.9178382784,-11341.4250347865,9993.6822638901,66.8493263452,13391.4142601221,20331.3939877521,-9494.9405388146,-11322.4677631363,7843.4555521271,1267.8010027696,-15419.0392586972,5988.4415006823,-18621.6135655860,-6112.3086543399
158243954626,6927,5,0,-3356.4104978213,-10461.6397160037,23937.2422704437,-11346.9370014473,9993.8282762520,67.1535187658,13392.9595576186,20333.2799807597,-9491.5457514010,-11318.9147956640,7847.4830597755,1271.7311688434,-15415.3037757725,5996.9223853679,-18615.3350340253,-6104.7403469160
158243954626,6927,5,0,-3361.9346321789,-10460.4229463214,23928.9925719977,-11345.0266730461,9998.3059886828,70.6334800572,13395.8067986752,20338.2930718507,-9484.4398164564,-11312.3077362892,7854.2482992091,1277.7420110740,-15409.3902751166,6008.2748465037,-18604.0555790705,-6095.6024066020
158243954626,6927,5,0,-3355.7899452833,-10458.2570962869,23932.5455394700,-11336.5822914509,10004.1829862483,76.8390054369,13402.1583364168,20344.8027896510,-9479.2563776098,-11306.4185710269,7860.6363400411,1283.1809715538,-15405.5331152237,6009.1509206750,-18600.3687669331,-6091.7574144059
158243954626,6927,5,0,-3346.3964833360,-10456.0547431619,23944.4333792661,-11328.4421022764,10005.4605944147,80.6718299361,13403.8618139720,20347.5648568298,-9478.5993219813,-11305.5303291588,7862.7900223788,1285.5780078279,-15406.5917048473,6001.7042902193,-18604.2624299164,-6093.2783765088
158243984785,6928,5,0,-3349.3532336640,-10456.2007555238,23950.7727493108,-11329.8657228047,10002.7350303264,78.6154891730,13405.4922853462,20350.9231411529,-9482.1036186664,-11309.4969983231,7861.5124142124,1285.3346538915,-15408.4655301580,5998.0904842629,-18608.7644777409,-6096.7826731938
158243984785,6928,5,0,-3361.5817689710,-10460.7514741356,23940.7100640382,-11340.1109235296,9995.6534307754,71.8745851331,13398.0091518001,20344.4377587463,-9487.8589392636,-11316.3230762407,7857.5822481385,1280.4189043750,-15414.6467201441,5996.4965159791,-18608.9104901028,-6100.7006715708
158243984785,6928,5,0,-3367.3249218714,-10464.1584292460,23926.0844924571,-11348.6769820930,9990.5308304130,67.2386926436,13391.7306202395,20336.3097372686,-9492.5069994500,-11320.3140807987,7852.3744738983,1273.8726834843,-15419.3921219050,5998.9665584342,-18610.9303277754,-6104.4969929795
158243984785,6928,5,0,-3362.0441414503,-10462.3454424194,23926.0601570634,-11347.9955910709,9990.4578242320,67.1900218563,13388.9928884543,20334.8374459530,-9492.8111918705,-11319.3893358401,7849.4542266608,1271.4513118165,-15421.2172764285,6000.1103219355,-18609.3971979757,-6107.3807371266
158243984785,6928,5,0,-3349.4019044512,-10458.6829656757,23937.3639474119,-11340.5732960089,9991.4677430684,69.1733564384,13391.7671233300,20339.0718044474,-9492.8720303547,-11318.3550816102,7850.1112822893,1273.9700250589,-15419.5746373574,5998.7597075882,-18605.1263363909,-6109.5222517674
158243984785,6928,5,0,-3345.6177507393,-10460.2769339595,23944.4090438724,-11339.5755448694,9989.4600730926,65.3526996360,13390.9518876428,20339.6071831076,-9495.6827683208,-11321.5308504810,7850.4276424067,1273.5076525796,-15422.5313876853,5996.6181929473,-18601.9870706106,-6113.1847285111
158243984785,6928,5,0,-3360.1216453523,-10465.5455466838,23933.1782597048,-11348.5066343374,9982.6096597813,58.7578079580,13385.5615979503,20335.4093277037,-9500.2213192357,-11328.0770713717,7846.2054516091,1269.9546851073,-15426.1208582481,5996.1679881649,-18602.9726540532,-6114.3284920125
158243984785,6928,5,0,-3367.0085617540,-10466.3121115837,23919.4287622949,-11352.6801543477,9979.2270400645,55.4846975126,13382.1303074462,20330.9316152728,-9503.1780695637,-11329.6832073523,7843.4798875208,1267.3751333808,-15426.9725970257,5996.6425283410,-18601.9870706106,-6115.4600878170
158244208967,6933,5,0,-3337.3193815061,-10455.1299982034,23951.4054695456,-11310.6650972181,10011.3984304643,86.0499519318,13411.3449475181,20358.5036162736,-9478.9156820987,-11306.7957696284,7866.8053623303,1288.1088887671,-15397.7457892570,6005.7074624741,-18602.5467846644,-6089.0683534080
158244208967,6933,5,0,-3338.9620205772,-10456.6387926094,23953.8268412134,-11315.2158158299,10009.3542573981,83.9814434719,13410.0795070485,20357.9195668261,-9479.1955391257,-11307.3433159854,7865.1262201688,1287.4153300482,-15401.4691044848,6006.2671765279,-18602.1817537597,-6089.2508688604
158244208967,6933,5,0,-3350.5700033462,-10460.8731511038,23942.6690632267,-11323.1248187648,10003.7084460722,78.9683523809,13404.7865589305,20352.2494201066,-9483.4785684073,-11311.0666312132,7862.3884883836,1284.1787226933,-15406.9567357520,6002.9453952953,-18602.6441262390,-6090.4189677554
158244208967,6933,5,0,-3362.0928122376,-10465.2900250505,23926.4738587554,-11329.6710396555,9999.7296092111,73.9187581994,13399.8464740204,20347.6256953139,-9485.3402260213,-11313.9625430571,7859.1640487255,1282.9741207078,-15408.4655301580,6000.1833281165,-18599.6630405174,-6090.6744893887
158244208967,6933,5,0,-3356.1306407943,-10463.1485104097,23926.1940017285,-11324.4510977185,10001.9928008202,77.0215208892,13399.5544492966,20349.8402161357,-9482.9310220503,-11311.2491466656,7859.6507565984,1284.5194182043,-15407.4921144122,6003.4929416523,-18596.0127314705,-6089.4820551000
158244208967,6933,5,0,-3342.4054787781,-10458.3909409519,23939.3716173877,-11315.3253251013,10005.5336005957,81.6574133788,13403.2169260404,20352.3345939844,-9480.1081163874,-11307.5988376187,7859.5655827207,1284.6289274757,-15406.4943632727,6006.7295490072,-18595.1366572992,-6090.7474955696
158244208967,6933,5,0,-3341.1522060053,-10462.4671193876,23944.3603730851,-11317.3451627739,10004.1099800674,81.2315439900,13401.1605852773,20349.3291728691,-9482.0671155759,-11308.5844210614,7856.8400186323,1282.0858788398,-15407.8571453169,6007.8611448117,-18594.4552662771,-6093.7650843817
158244208967,6933,5,0,-3354.0499646376,-10467.4680427818,23937.5342951674,-11327.5051896210,9999.7539446048,76.4983099258,13395.3444261959,20343.0749767021,-9487.1045420606,-11311.1639727878,7854.1996284218,1277.9488619200,-15412.5782116842,6012.8255651155,-18590.9144665017,-6096.0647790812
158244216395,6934,5,0,-3357.4325843544,-10467.8209059897,23925.2692567699,-11332.3235975629,9996.4686664626,73.8092489280,13390.4286766794,20339.7166923790,-9490.7183480170,-11311.3586559370,7851.7660890572,1274.9799438952,-15414.8900740805,6017.0355882162,-18584.9157919680,-6096.1256175653
158244216395,6934,5,0,-3353.2468966473,-10463.6960567667,23922.8235497085,-11327.9797297971,9996.5173372499,75.3910495149,13389.8081241415,20339.8627047409,-9489.6475906966,-11310.6894326117,7850.6101578590,1274.4810683254,-15415.1090926233,6014.6142165485,-18584.8062826966,-6098.3888091744
158244216395,6934,5,0,-3343.2328821620,-10462.1385915734,23934.1030046634,-11321.9445521729,9996.8823681546,77.3743840971,13392.3025019902,20343.3670014259,-9490.3654848091,-11310.1662216483,7851.0116918542,1274.9556085015,-15417.2627749610,6008.8102251639,-18590.5494355970,-6101.0900378691
158244216395,6934,5,0,-3338.9498528803,-10460.3499401404,23943.6911497599,-11320.1559007400,9997.5272560862,78.0192720287,13395.1619107436,20346.4819318126,-9489.3433982760,-11310.3974078880,7853.3113865537,1278.1313773723,-15417.9441659831,6006.1698349533,-18593.1533227171,-6100.3234729693
158244216395,6934,5,0,-3349.4384075417,-10461.5423744291,23939.5297974464,-11325.5826935230,9997.8071131131,77.2283717352,13394.8942214135,20345.9708885460,-9487.1532128479,-11311.3343205433,7855.1730441676,1279.1169608150,-15415.5471297090,6006.6930459167,-18592.4962670887,-6097.9021013015
158244216395,6934,5,0,-3355.9237899483,-10463.2701873779,23926.8753927505,-11328.9409778461,9997.0162128196,75.7074096323,13394.1154888168,20342.2597410150,-9487.4452375716,-11312.4050778638,7854.6620009010,1276.9267753868,-15413.9896645156,6003.6146186205,-18590.9266341985,-6096.9286855557
158244216395,6934,5,0,-3352.2978162951,-10462.4792870844,23924.0889901781,-11325.2785011024,9999.4497521842,77.1310301606,13393.4949362788,20342.5639334356,-9486.9950327892,-11311.5533390862,7854.0779514535,1276.7564276313,-15413.3812796745,6003.1157430508,-18590.3425847510,-6097.1963748858
158244216395,6934,5,0,-3343.5127391889,-10458.9263196121,23935.4901221012,-11317.8440383436,10002.2239870598,81.0490285376,13396.4638543036,20347.8568815536,-9486.2041324957,-11309.0954643279,7855.9517767643,1278.6667560325,-15410.6313801925,6003.4807739555,-18589.4056720956,-6098.6443308077
158244226358,6935,5,0,-3339.7285854770,-10458.2935993773,23947.1224402639,-11312.7457733748,10002.6498564486,81.5600718042,13400.0776602600,20350.3634270991,-9487.0802066669,-11310.2878986166,7857.1077079625,1280.6257552210,-15411.3249389114,6000.5726944148,-18591.3768389809,-6099.6177465535
158244226358,6935,5,0,-3346.3599802455,-10458.7559718566,23945.3581242246,-11317.0653057469,10000.3623294459,78.9926877745,13398.8608905777,20350.3025886150,-9489.8909446330,-11313.4880028810,7856.8035155419,1280.3824012845,-15411.3979450923,5995.4865971428,-18595.9153898959,-6100.3113052724
158244226358,6935,5,0,-3352.6385118061,-10457.5878729616,23933.8109799396,-11320.8007886716,9997.6854361449,75.2207017594,13398.9460644555,20348.0515647027,-9492.9328688388,-11317.6006844072,7856.1586276103,1276.7685953281,-15411.5196220606,5994.0143058272,-18598.3732646541,-6102.0999567054
158244226358,6935,5,0,-3349.5114137227,-10453.8523900370,23926.6685419046,-11319.2433234783,9998.8657027367,74.3811306786,13398.4228534921,20348.2949186392,-9492.9450365356,-11319.4015035370,7856.4141492435,1278.5207436706,-15408.6723810040,5996.1314850744,-18599.6752082142,-6101.7592611944
158244226358,6935,5,0,-3336.6379904840,-10450.3845964424,23936.2566870010,-11310.9814573355,10002.0658070011,80.4528113933,13403.4967830673,20353.0403204001,-9490.2194724473,-11315.7755298837,7859.1032102414,1280.5892521305,-15405.7886368570,6000.7065390798,-18598.0690722336,-6099.5569080694
158244226358,6935,5,0,-3327.6582302286,-10449.7397085108,23950.3590476188,-11305.9805339412,10005.9959730749,85.2347162447,13409.1790974836,20359.5622058972,-9484.6710026960,-11309.9472031055,7864.3718229657,1287.1963115054,-15401.3960983039,6005.1842515107,-18595.7207067467,-6093.6434074135
158244226358,6935,5,0,-3335.5672331636,-10452.9763158657,23950.2738737411,-11309.0954643279,10007.6021090556,87.8142679712,13410.1281778358,20358.7956409974,-9481.4587307347,-11305.8588569730,7867.7179395921,1290.7006081904,-15399.7777946264,6005.3789346598,-18595.3435081452,-6087.6325651829
158244226358,6935,5,0,-3344.1089563333,-10456.2980970984,23939.3107789036,-11315.2036481330,10009.2690835203,87.0477030713,13409.0452528185,20357.1164988358,-9478.7696697369,-11303.1332928847,7867.9247904380,1289.3499938430,-15399.6561176582,6004.0404880093,-18596.7184578862,-6085.1260196374
158244239923,6936,5,0,-3341.6267461814,-10452.3679310246,23935.3562774361,-11314.4370832332,10011.9216414277,89.9314472184,13409.2764390582,20356.3499339360,-9475.5939008661,-11298.7650897252,7869.3605786632,1288.7416090019,-15398.3663417950,6011.8278139760,-18596.0127314705,-6081.4392075001
158244239923,6936,5,0,-3332.8051659848,-10448.9123051269,23942.7177340140,-11307.9882039170,10016.9955710029,96.4655004123,13412.8537419241,20360.1827584352,-9470.4713005036,-11293.8006694215,7871.3682486389,1291.1873160633,-15395.0445605623,6019.4934629745,-18595.8788868054,-6079.1151774069
158244239923,6936,5,0,-3325.9425849766,-10451.9907324231,23954.3622198736,-11304.0945409337,10018.5530361962,98.2906549357,13416.0781815822,20362.4702854379,-9468.2567796818,-11290.6979067316,7871.7332795436,1292.2337379901,-15395.1175667433,6019.4204567935,-18598.2272522923,-6079.6870591576
158244239923,6936,5,0,-3331.5883963025,-10455.4585260176,23953.7660027292,-11307.0391235648,10016.6062047046,95.3217369109,13414.1070146969,20362.1782607142,-9470.3131204449,-11292.7177444042,7871.9036272991,1291.6496885426,-15395.7259515844,6015.3077752674,-18598.6044508938,-6079.6505560671
158244239923,6936,5,0,-3343.1963790715,-10458.5247856170,23943.1922741901,-11316.0918900011,10013.7346282543,92.0486264656,13408.3395264028,20357.8708960388,-9473.1968645920,-11295.1512837688,7868.6548522474,1289.7758632319,-15397.7579569538,6013.7624777709,-18593.7860429519,-6081.1715181700
158244239923,6936,5,0,-3342.0526155702,-10456.9186496364,23931.3409374846,-11318.0143860991,10010.2546669630,89.6759255851,13402.9979074975,20353.9163945714,-9476.9201798198,-11298.5825742729,7862.9725378311,1285.5536724343,-15402.1748309006,6015.0644213309,-18590.0018892400,-6085.3693735739
158244239923,6936,5,0,-3333.7177432465,-10456.9186496364,23935.2589358616,-11313.8895368762,10008.3686739554,89.9679503088,13399.9924863823,20351.0448181212,-9480.9233520745,-11300.3833934027,7858.1541298892,1281.6113386637,-15406.0928292775,6016.6948927052,-18587.4466729071,-6089.6524028555
158244239923,6936,5,0,-3327.3662055049,-10456.8943142427,23946.4775523323,-11309.8741969246,10006.4583455542,89.3717331645,13398.4471888858,20350.1809116467,-9482.8580158694,-11301.1499583025,7856.9616956006,1282.5725867127,-15408.0639961629,6019.9071646664,-18585.8892077138,-6092.7429978486
158244268888,6937,5,0,-3334.4721404495,-10462.9538272605,23944.2265284201,-11314.2302323872,9997.6367653576,82.9593569388,13394.8455506262,20350.2782532213,-9485.9242754688,-11305.2018013446,7853.5060697029,1281.3071462431,-15413.3812796745,6021.7688222803,-18583.6625191952,-6093.2053703278
158244268888,6937,5,0,-3346.7493465438,-10464.5599632412,23932.2900178368,-11322.7232847696,9993.6700961933,77.8002534859,13390.6111921318,20345.5450191572,-9488.9661996745,-11309.2901474771,7851.4618966366,1278.6059175484,-15415.4619558312,6018.6660595905,-18582.4092464224,-6095.1887049100
158244268888,6937,5,0,-3353.7822753075,-10462.1750946639,23920.5725257963,-11325.6800350976,9991.4312399779,75.0868570944,13387.4840940483,20342.3327471959,-9494.1739739147,-11313.7313568175,7848.2374569785,1274.9434408047,-15418.1996876164,6012.0833356093,-18586.4002509804,-6097.7074181523
158244268888,6937,5,0,-3346.5303280010,-10458.9263196121,23922.5071895911,-11323.1126510679,9991.5650846429,74.6001492215,13386.3768336374,20342.9289643403,-9493.0302104134,-11312.6362641034,7847.7020783183,1273.8848511811,-15417.6764766530,6007.0215737309,-18586.6192695232,-6098.8390139569
158244268888,6937,5,0,-3337.0881952664,-10458.6464625852,23935.5631282821,-11318.3185785197,9996.5173372499,78.1287813001,13389.5160994177,20346.2142424825,-9491.3754036454,-11311.0544635164,7849.0161895752,1274.7122545650,-15417.0072533277,6005.5492824154,-18586.5219279486,-6099.9219389741
158244268888,6937,5,0,-3341.5172369100,-10463.4892059207,23939.8096544733,-11320.5452670383,9997.9044546877,78.2261228747,13393.3732593106,20349.4630175342,-9489.5989199093,-11310.8719480641,7853.7372559425,1278.2043835532,-15415.0847572297,6010.1851749049,-18583.0784697477,-6096.0769467781
158244268888,6937,5,0,-3350.7768541922,-10467.3341981168,23929.8443107753,-11325.0959856501,9997.0527159101,75.6344034514,13391.7914587236,20347.2484967124,-9489.0513735523,-11311.7115191449,7853.4330635219,1277.4743217439,-15414.1356768775,6011.0125782889,-18579.3551545199,-6093.8015874722
158244268888,6937,5,0,-3353.4537474933,-10467.9182475643,23916.5571858447,-11326.7994632053,9996.5416726435,75.8534219942,13390.5381859508,20343.7685354211,-9489.9152800267,-11313.0256304017,7851.9972752968,1275.3206394062,-15415.1212603202,6005.7074624741,-18585.3538290536,-6096.4298099859
158244302569,6938,5,0,-3348.4041533118,-10463.4405351335,23920.7793766423,-11322.0540614444,9998.4641687415,78.7493338381,13389.6377763859,20344.5472680177,-9489.6354229998,-11312.0887177464,7847.6899106215,1272.3395536846,-15415.3889496503,6002.9940660826,-18594.5769432454,-6100.2017960010
158244302569,6938,5,0,-3337.6357416235,-10459.4616982723,23934.5288740522,-11315.1793127394,10000.2406524777,81.5844071978,13391.5237693935,20346.6644472649,-9489.4650752442,-11310.8476126704,7846.9841842058,1271.3052994546,-15414.9387448678,6003.3347615936,-18597.8622213876,-6103.9007758352
158244302569,6938,5,0,-3337.5505677457,-10461.8709022433,23939.9678345320,-11315.2523189203,9996.4443310689,78.4816445080,13391.0127261269,20346.2264101793,-9494.0888000370,-11314.2667354777,7846.0959423377,1268.9569339678,-15416.3380300025,5999.2707508547,-18600.7824686251,-6106.4194890776
158244302569,6938,5,0,-3348.7326811260,-10462.6374671431,23931.7546391765,-11322.5529370141,9992.4898296015,73.1886963900,13389.2727454813,20342.8559581593,-9497.8729537489,-11320.0828945590,7846.0229361568,1269.7721696549,-15416.5083777580,5993.8317903749,-18600.0037360284,-6106.9670354346
158244302569,6938,5,0,-3350.8620280700,-10464.4139508793,23919.9763086519,-11325.0351471660,9993.0008728680,72.8723362726,13389.1875716035,20341.9068778071,-9497.7634444775,-11320.2289069209,7847.6899106215,1271.5851564816,-15415.5349620121,5992.4811760275,-18600.1254129966,-6102.2946398546
158244302569,6938,5,0,-3341.7727585433,-10458.7194687662,23921.4485999675,-11318.2334046419,9997.7341069322,77.5447318526,13394.0181472422,20345.2286590398,-9492.7990241737,-11314.5344248078,7852.5448216538,1274.9677761983,-15412.5782116842,5997.3969255440,-18596.3899300720,-6096.2837976240
158244302569,6938,5,0,-3333.8637556083,-10453.1223282276,23936.9015749326,-11307.6840114965,10004.3655017007,84.8453499464,13399.9924863823,20353.3688482144,-9484.6466673024,-11306.1022109095,7858.8841916986,1283.0471268888,-15407.1879219916,6008.4695296529,-18589.4056720956,-6088.8371671684
